OOIBase32 Version 2.0.2.2 Data File
++++++++++++++++++++++++++++++++++++
Date: Monday, July 15, 2019, 09:16:19
User: Valued Ocean Optics Customer
Spectrometer Serial Number: I2J306
Spectrometer Channel: Master
Integration Time (msec): 100
Spectra Averaged: 3
Boxcar Smoothing: 5
Correct for Electrical Dark: Disabled
Time Normalized: Disabled
Dual-beam Reference: Disabled
Reference Channel: Master
Temperature: Not acquired
Spectrometer Type: S2000
ADC Type: ADC1000
Number of Pixels in File: 2048
Graph Title: 
>>>>>Begin Spectral Data<<<<<
332.72	
333.10	
333.48	53.000
333.86	54.000
334.24	52.000
334.61	53.667
334.99	56.000
335.37	55.000
335.75	56.000
336.13	57.667
336.51	61.000
336.89	54.333
337.26	57.333
337.64	57.000
338.02	55.000
338.40	60.333
338.78	59.000
339.16	58.333
339.53	58.333
339.91	71.667
340.29	62.333
340.67	60.848
341.05	61.212
341.42	61.606
341.80	61.939
342.18	61.515
342.56	61.939
342.94	62.152
343.31	62.636
343.69	62.970
344.07	63.091
344.45	63.091
344.82	63.152
345.20	62.727
345.58	62.939
345.96	62.848
346.33	62.242
346.71	61.606
347.09	61.545
347.46	61.364
347.84	61.091
348.22	61.091
348.60	61.242
348.97	61.242
349.35	61.606
349.73	61.273
350.10	61.121
350.48	61.273
350.86	61.515
351.23	61.394
351.61	61.242
351.99	61.061
352.36	61.273
352.74	61.212
353.12	61.303
353.49	61.152
353.87	61.303
354.25	61.212
354.62	61.212
355.00	61.030
355.37	61.152
355.75	61.273
356.13	61.455
356.50	61.485
356.88	61.273
357.25	60.818
357.63	60.970
358.01	60.727
358.38	60.848
358.76	60.697
359.13	60.879
359.51	61.000
359.88	60.909
360.26	60.848
360.64	60.606
361.01	60.879
361.39	61.394
361.76	61.333
362.14	61.758
362.51	62.061
362.89	62.121
363.26	62.121
363.64	62.000
364.01	61.970
364.39	62.000
364.76	62.242
365.14	62.242
365.51	62.121
365.89	62.030
366.26	61.606
366.64	61.424
367.01	61.424
367.39	61.394
367.76	61.394
368.14	61.333
368.51	61.515
368.88	61.303
369.26	61.212
369.63	61.061
370.01	61.091
370.38	61.000
370.76	60.939
371.13	60.939
371.50	60.879
371.88	60.636
372.25	60.939
372.63	60.788
373.00	60.970
373.37	60.848
373.75	60.939
374.12	61.121
374.50	61.303
374.87	61.394
375.24	61.576
375.62	61.364
375.99	61.515
376.36	61.273
376.74	61.606
377.11	61.364
377.48	61.576
377.86	61.606
378.23	61.394
378.60	61.303
378.98	61.333
379.35	61.152
379.72	61.273
380.10	61.545
380.47	61.636
380.84	61.364
381.22	61.394
381.59	61.485
381.96	61.636
382.33	61.697
382.71	62.030
383.08	62.242
383.45	62.152
383.82	62.485
384.20	62.273
384.57	62.576
384.94	62.788
385.31	63.455
385.69	63.273
386.06	63.394
386.43	63.545
386.80	63.333
387.18	63.030
387.55	63.212
387.92	65.000
388.29	65.121
388.66	64.848
389.04	64.758
389.41	64.212
389.78	64.212
390.15	64.152
390.52	64.212
390.90	64.545
391.27	64.394
391.64	64.091
392.01	61.970
392.38	61.909
392.75	61.879
393.12	62.061
393.50	62.303
393.87	62.212
394.24	61.939
394.61	62.000
394.98	61.758
395.35	62.182
395.72	62.576
396.09	62.848
396.46	62.939
396.84	63.182
397.21	63.091
397.58	62.879
397.95	63.000
398.32	64.636
398.69	65.303
399.06	65.636
399.43	65.545
399.80	65.545
400.17	65.606
400.54	65.848
400.91	65.727
401.28	65.636
401.65	66.061
402.02	66.333
402.39	64.879
402.76	64.333
403.13	64.212
403.50	64.273
403.87	64.303
404.24	64.333
404.61	64.303
404.98	64.848
405.35	65.485
405.72	65.667
406.09	65.788
406.46	66.091
406.83	66.303
407.20	66.697
407.57	67.152
407.94	67.485
408.31	67.727
408.68	67.909
409.05	67.909
409.42	68.394
409.79	68.758
410.16	69.485
410.53	70.121
410.90	70.788
411.26	71.212
411.63	71.636
412.00	72.576
412.37	73.576
412.74	74.576
413.11	75.424
413.48	76.000
413.85	76.909
414.22	77.788
414.58	78.879
414.95	79.758
415.32	80.758
415.69	82.182
416.06	83.364
416.43	84.606
416.80	85.939
417.16	87.242
417.53	88.636
417.90	89.606
418.27	90.909
418.64	92.758
419.00	94.182
419.37	95.606
419.74	97.364
420.11	99.000
420.48	100.545
420.84	102.273
421.21	104.273
421.58	106.212
421.95	108.273
422.32	110.424
422.68	111.848
423.05	114.303
423.42	117.000
423.79	119.424
424.15	122.000
424.52	125.242
424.89	128.303
425.25	131.394
425.62	135.152
425.99	139.121
426.36	142.667
426.72	146.788
427.09	150.879
427.46	155.515
427.82	159.879
428.19	164.545
428.56	169.333
428.93	174.576
429.29	179.636
429.66	184.970
430.03	191.061
430.39	197.727
430.76	204.424
431.13	211.485
431.49	218.212
431.86	225.303
432.22	233.273
432.59	240.879
432.96	249.182
433.32	258.636
433.69	268.424
434.06	277.667
434.42	288.030
434.79	298.364
435.15	308.636
435.52	318.970
435.89	331.303
436.25	343.000
436.62	355.970
436.98	370.121
437.35	383.970
437.71	397.788
438.08	412.788
438.45	427.485
438.81	444.394
439.18	460.424
439.54	478.364
439.91	494.515
440.27	511.636
440.64	528.364
441.00	544.879
441.37	561.182
441.73	577.515
442.10	594.758
442.46	611.303
442.83	628.879
443.19	645.970
443.56	661.727
443.92	676.848
444.29	692.273
444.65	707.455
445.02	721.394
445.38	733.121
445.75	744.333
446.11	755.303
446.48	765.606
446.84	771.515
447.21	778.212
447.57	783.727
447.93	789.030
448.30	792.030
448.66	794.061
449.03	794.818
449.39	795.788
449.76	796.030
450.12	793.758
450.48	790.273
450.85	786.364
451.21	780.939
451.58	776.091
451.94	769.545
452.30	762.939
452.67	756.727
453.03	749.636
453.39	742.697
453.76	734.818
454.12	727.121
454.48	719.000
454.85	711.030
455.21	704.970
455.57	698.970
455.94	694.394
456.30	689.424
456.66	682.727
457.03	677.394
457.39	673.576
457.75	669.485
458.12	665.545
458.48	663.333
458.84	661.848
459.21	659.788
459.57	656.030
459.93	653.061
460.29	651.394
460.66	650.273
461.02	649.212
461.38	647.182
461.74	645.424
462.11	644.000
462.47	641.879
462.83	639.879
463.19	636.030
463.56	634.030
463.92	631.000
464.28	625.848
464.64	621.636
465.01	616.909
465.37	611.212
465.73	606.667
466.09	601.849
466.45	596.061
466.82	590.212
467.18	585.273
467.54	579.909
467.90	574.606
468.26	570.455
468.62	566.061
468.99	561.030
469.35	557.091
469.71	552.000
470.07	546.970
470.43	543.636
470.79	539.818
471.15	537.212
471.52	534.424
471.88	532.455
472.24	531.151
472.60	529.424
472.96	529.121
473.32	529.000
473.68	530.152
474.04	531.273
474.40	532.455
474.77	535.242
475.13	537.788
475.49	540.970
475.85	544.394
476.21	548.091
476.57	552.576
476.93	556.394
477.29	562.121
477.65	567.727
478.01	573.909
478.37	580.970
478.73	587.152
479.09	593.667
479.45	600.394
479.81	608.576
480.17	617.485
480.53	626.818
480.89	636.424
481.25	646.121
481.61	655.515
481.97	664.970
482.33	673.970
482.69	684.667
483.05	696.545
483.41	708.667
483.77	718.970
484.13	730.364
484.49	741.061
484.85	753.364
485.21	765.364
485.57	778.242
485.93	792.454
486.29	807.667
486.65	822.727
487.01	837.182
487.37	851.545
487.72	867.182
488.08	883.242
488.44	899.788
488.80	915.273
489.16	932.000
489.52	949.727
489.88	965.939
490.24	982.697
490.60	1000.121
490.95	1017.667
491.31	1035.364
491.67	1053.667
492.03	1071.364
492.39	1089.000
492.75	1108.061
493.11	1125.455
493.46	1142.970
493.82	1160.697
494.18	1177.697
494.54	1194.636
494.90	1211.636
495.26	1228.727
495.61	1245.364
495.97	1262.182
496.33	1279.485
496.69	1294.879
497.05	1312.000
497.40	1326.970
497.76	1342.151
498.12	1357.576
498.48	1371.333
498.84	1385.879
499.19	1399.061
499.55	1412.849
499.91	1426.061
500.27	1438.424
500.62	1451.818
500.98	1463.576
501.34	1475.636
501.69	1488.061
502.05	1499.849
502.41	1511.879
502.77	1524.182
503.12	1536.727
503.48	1546.909
503.84	1556.151
504.19	1566.788
504.55	1575.849
504.91	1585.636
505.27	1595.576
505.62	1605.242
505.98	1614.000
506.34	1622.697
506.69	1630.939
507.05	1639.879
507.41	1648.303
507.76	1658.091
508.12	1666.000
508.47	1674.576
508.83	1682.576
509.19	1690.273
509.54	1696.697
509.90	1704.273
510.26	1711.909
510.61	1718.576
510.97	1725.909
511.32	1734.636
511.68	1741.151
512.04	1750.939
512.39	1758.455
512.75	1767.667
513.10	1776.515
513.46	1786.364
513.82	1795.242
514.17	1804.667
514.53	1814.576
514.88	1822.667
515.24	1830.485
515.59	1840.546
515.95	1850.152
516.30	1860.121
516.66	1868.939
517.01	1878.454
517.37	1888.636
517.72	1897.394
518.08	1905.849
518.44	1915.061
518.79	1925.546
519.15	1936.637
519.50	1946.424
519.85	1954.030
520.21	1964.333
520.56	1972.818
520.92	1982.333
521.27	1991.697
521.63	2003.576
521.98	2015.242
522.34	2024.697
522.69	2033.545
523.05	2041.970
523.40	2051.182
523.76	2060.546
524.11	2070.273
524.46	2080.818
524.82	2090.849
525.17	2100.303
525.53	2109.788
525.88	2119.758
526.24	2131.152
526.59	2142.849
526.94	2154.182
527.30	2165.091
527.65	2176.940
528.00	2187.697
528.36	2197.909
528.71	2208.939
529.07	2219.758
529.42	2230.636
529.77	2241.272
530.13	2252.242
530.48	2261.727
530.83	2272.758
531.19	2282.303
531.54	2292.788
531.89	2305.333
532.25	2318.212
532.60	2328.818
532.95	2340.545
533.31	2353.576
533.66	2365.485
534.01	2377.485
534.37	2391.939
534.72	2404.515
535.07	2418.515
535.42	2431.364
535.78	2442.758
536.13	2455.424
536.48	2468.273
536.83	2481.303
537.19	2490.758
537.54	2502.182
537.89	2512.636
538.24	2524.697
538.60	2536.091
538.95	2547.728
539.30	2560.000
539.65	2571.758
540.01	2582.485
540.36	2593.182
540.71	2604.273
541.06	2616.364
541.41	2627.091
541.77	2636.182
542.12	2641.636
542.47	2648.939
542.82	2656.849
543.17	2665.606
543.53	2673.818
543.88	2681.515
544.23	2691.485
544.58	2697.061
544.93	2702.273
545.28	2706.909
545.63	2713.939
545.99	2723.364
546.34	2729.545
546.69	2734.000
547.04	2737.212
547.39	2738.727
547.74	2741.879
548.09	2744.788
548.44	2749.394
548.80	2755.424
549.15	2760.333
549.50	2764.697
549.85	2766.242
550.20	2771.091
550.55	2777.303
550.90	2782.091
551.25	2790.576
551.60	2797.545
551.95	2803.364
552.30	2808.758
552.65	2815.212
553.00	2824.515
553.35	2832.151
553.71	2837.818
554.06	2843.303
554.41	2847.606
554.76	2854.212
555.11	2858.849
555.46	2862.970
555.81	2865.272
556.16	2871.697
556.51	2876.758
556.86	2880.727
557.21	2886.849
557.56	2895.636
557.91	2904.758
558.26	2912.939
558.61	2920.576
558.95	2927.545
559.30	2936.333
559.65	2945.818
560.00	2954.606
560.35	2962.728
560.70	2971.000
561.05	2978.424
561.40	2988.212
561.75	2997.333
562.10	3007.636
562.45	3017.788
562.80	3028.545
563.15	3040.485
563.50	3050.212
563.84	3058.879
564.19	3068.364
564.54	3078.758
564.89	3088.212
565.24	3098.031
565.59	3107.303
565.94	3117.030
566.29	3127.788
566.64	3139.303
566.98	3150.727
567.33	3166.788
567.68	3180.636
568.03	3195.818
568.38	3211.091
568.73	3225.576
569.07	3237.363
569.42	3250.515
569.77	3264.151
570.12	3276.909
570.47	3291.273
570.81	3301.606
571.16	3312.152
571.51	3325.425
571.86	3337.121
572.21	3349.879
572.55	3365.303
572.90	3379.788
573.25	3393.848
573.60	3409.394
573.95	3423.182
574.29	3436.849
574.64	3453.576
574.99	3468.182
575.34	3483.545
575.68	3500.151
576.03	3514.545
576.38	3530.212
576.72	3548.879
577.07	3566.758
577.42	3584.636
577.77	3601.636
578.11	3616.000
578.46	3630.758
578.81	3647.182
579.15	3662.030
579.50	3673.636
579.85	3688.545
580.19	3699.969
580.54	3710.697
580.89	3723.849
581.23	3734.576
581.58	3747.515
581.93	3763.212
582.27	3778.424
582.62	3792.788
582.97	3806.031
583.31	3821.121
583.66	3832.909
584.01	3848.060
584.35	3863.727
584.70	3876.879
585.04	3890.333
585.39	3903.788
585.74	3914.606
586.08	3924.485
586.43	3934.515
586.77	3945.697
587.12	3957.485
587.47	3969.515
587.81	3978.606
588.16	3984.182
588.50	3991.303
588.85	3997.819
589.19	4002.606
589.54	4008.636
589.88	4014.000
590.23	4018.424
590.58	4022.455
590.92	4024.940
591.27	4027.000
591.61	4028.636
591.96	4030.182
592.30	4030.303
592.65	4029.970
592.99	4030.636
593.34	4030.000
593.68	4028.606
594.03	4026.303
594.37	4023.061
594.72	4020.697
595.06	4018.697
595.41	4016.394
595.75	4013.182
596.09	4010.606
596.44	4006.636
596.78	4003.152
597.13	4000.788
597.47	3998.424
597.82	3996.970
598.16	3993.818
598.51	3988.758
598.85	3980.545
599.19	3972.939
599.54	3968.121
599.88	3961.060
600.23	3955.606
600.57	3950.212
600.91	3943.606
601.26	3936.818
601.60	3926.788
601.95	3918.394
602.29	3909.818
602.63	3903.727
602.98	3897.394
603.32	3893.273
603.66	3886.848
604.01	3879.848
604.35	3871.606
604.69	3863.879
605.04	3856.212
605.38	3849.818
605.72	3843.000
606.07	3835.606
606.41	3826.030
606.75	3816.970
607.10	3803.818
607.44	3795.697
607.78	3786.758
608.13	3776.333
608.47	3765.485
608.81	3755.091
609.15	3746.667
609.50	3737.485
609.84	3726.151
610.18	3717.242
610.52	3707.879
610.87	3699.394
611.21	3687.212
611.55	3675.455
611.89	3665.242
612.24	3653.242
612.58	3641.061
612.92	3625.939
613.26	3613.485
613.61	3603.485
613.95	3590.182
614.29	3576.121
614.63	3563.606
614.97	3552.879
615.32	3540.939
615.66	3527.455
616.00	3516.970
616.34	3505.697
616.68	3496.909
617.02	3485.454
617.37	3475.182
617.71	3466.212
618.05	3455.818
618.39	3442.545
618.73	3427.909
619.07	3414.364
619.42	3401.969
619.76	3388.212
620.10	3374.031
620.44	3358.909
620.78	3343.758
621.12	3327.969
621.46	3314.242
621.80	3300.303
622.14	3289.848
622.49	3277.909
622.83	3264.364
623.17	3252.667
623.51	3239.727
623.85	3226.121
624.19	3212.455
624.53	3198.606
624.87	3184.151
625.21	3168.485
625.55	3154.061
625.89	3137.212
626.23	3123.455
626.57	3112.515
626.91	3097.758
627.25	3083.788
627.59	3071.061
627.93	3058.455
628.27	3046.667
628.61	3033.818
628.95	3020.576
629.29	3006.545
629.63	2993.000
629.97	2977.576
630.31	2962.121
630.65	2948.788
630.99	2934.121
631.33	2920.818
631.67	2906.000
632.01	2891.242
632.35	2876.879
632.69	2862.364
633.03	2848.152
633.37	2832.909
633.71	2819.788
634.05	2804.303
634.39	2787.667
634.73	2773.546
635.07	2756.909
635.41	2741.303
635.75	2724.667
636.09	2708.909
636.42	2692.727
636.76	2678.970
637.10	2664.606
637.44	2648.909
637.78	2634.303
638.12	2620.788
638.46	2604.242
638.80	2590.394
639.13	2577.303
639.47	2564.879
639.81	2550.242
640.15	2536.909
640.49	2519.697
640.83	2504.000
641.17	2488.909
641.50	2474.182
641.84	2457.121
642.18	2441.061
642.52	2423.121
642.86	2404.151
643.19	2384.727
643.53	2368.242
643.87	2352.515
644.21	2336.970
644.55	2321.364
644.88	2304.152
645.22	2287.242
645.56	2270.697
645.90	2253.515
646.23	2236.818
646.57	2221.939
646.91	2206.182
647.25	2191.455
647.59	2172.000
647.92	2154.576
648.26	2137.121
648.60	2120.545
648.93	2101.970
649.27	2084.485
649.61	2069.030
649.95	2051.364
650.28	2033.121
650.62	2015.424
650.96	1995.030
651.29	1977.849
651.63	1960.242
651.97	1942.576
652.30	1925.333
652.64	1907.636
652.98	1890.576
653.31	1873.697
653.65	1857.182
653.99	1840.515
654.32	1823.212
654.66	1807.182
655.00	1790.182
655.33	1773.697
655.67	1757.697
656.01	1740.576
656.34	1725.091
656.68	1708.061
657.01	1690.485
657.35	1673.273
657.69	1656.636
658.02	1640.121
658.36	1623.788
658.69	1607.788
659.03	1592.909
659.37	1575.364
659.70	1558.394
660.04	1542.303
660.37	1527.394
660.71	1510.182
661.04	1494.000
661.38	1475.818
661.72	1460.212
662.05	1444.454
662.39	1428.364
662.72	1412.061
663.06	1396.667
663.39	1382.545
663.73	1366.909
664.06	1351.515
664.40	1338.273
664.73	1325.273
665.07	1313.000
665.40	1299.909
665.74	1287.242
666.07	1275.273
666.41	1262.242
666.74	1249.697
667.08	1236.636
667.41	1223.424
667.75	1209.818
668.08	1196.515
668.41	1183.242
668.75	1170.939
669.08	1157.485
669.42	1143.121
669.75	1129.121
670.09	1115.788
670.42	1103.151
670.76	1090.818
671.09	1079.303
671.42	1067.091
671.76	1054.455
672.09	1041.909
672.43	1028.788
672.76	1017.091
673.09	1006.394
673.43	995.455
673.76	984.606
674.09	973.606
674.43	962.030
674.76	950.576
675.10	940.849
675.43	931.091
675.76	922.273
676.10	912.606
676.43	902.364
676.76	892.485
677.10	883.152
677.43	873.151
677.76	863.212
678.10	854.273
678.43	844.939
678.76	836.091
679.09	826.909
679.43	817.182
679.76	809.152
680.09	801.273
680.43	791.848
680.76	782.939
681.09	775.030
681.42	767.182
681.76	758.909
682.09	750.727
682.42	741.848
682.75	733.909
683.09	725.818
683.42	717.030
683.75	709.303
684.08	702.576
684.42	695.455
684.75	687.515
685.08	680.242
685.41	672.939
685.74	665.576
686.08	658.515
686.41	650.939
686.74	644.273
687.07	637.758
687.40	629.727
687.74	622.758
688.07	616.121
688.40	609.849
688.73	603.121
689.06	596.697
689.39	591.424
689.73	585.151
690.06	579.364
690.39	573.242
690.72	567.030
691.05	562.000
691.38	555.939
691.71	549.879
692.04	543.606
692.38	537.939
692.71	532.788
693.04	526.849
693.37	521.424
693.70	516.121
694.03	510.879
694.36	505.818
694.69	500.606
695.02	495.606
695.35	489.394
695.68	484.515
696.02	479.606
696.35	474.000
696.68	469.485
697.01	464.515
697.34	460.121
697.67	455.727
698.00	451.212
698.33	446.788
698.66	442.333
698.99	438.758
699.32	434.182
699.65	429.303
699.98	425.515
700.31	420.818
700.64	416.333
700.97	411.515
701.30	406.788
701.63	402.273
701.96	397.939
702.29	393.576
702.62	389.667
702.95	385.727
703.28	382.576
703.61	378.091
703.94	374.182
704.26	370.424
704.59	366.909
704.92	362.727
705.25	359.636
705.58	355.970
705.91	352.394
706.24	348.818
706.57	345.242
706.90	341.121
707.23	337.758
707.56	333.909
707.89	330.879
708.21	327.030
708.54	324.394
708.87	320.424
709.20	316.515
709.53	313.182
709.86	309.576
710.19	306.818
710.51	304.030
710.84	301.394
711.17	298.879
711.50	295.909
711.83	293.636
712.16	290.182
712.48	287.576
712.81	285.364
713.14	282.273
713.47	279.848
713.80	276.788
714.13	274.394
714.45	271.242
714.78	267.909
715.11	264.849
715.44	261.606
715.76	259.485
716.09	257.273
716.42	254.576
716.75	252.697
717.08	250.515
717.40	248.303
717.73	245.727
718.06	243.727
718.38	241.606
718.71	239.424
719.04	237.121
719.37	235.061
719.69	232.485
720.02	230.424
720.35	227.970
720.68	225.515
721.00	223.152
721.33	220.879
721.66	218.455
721.98	216.879
722.31	214.909
722.64	213.333
722.96	210.545
723.29	208.030
723.62	205.606
723.94	203.273
724.27	200.970
724.60	199.333
724.92	197.000
725.25	195.242
725.58	193.273
725.90	190.939
726.23	188.818
726.55	187.424
726.88	186.121
727.21	184.667
727.53	182.970
727.86	181.242
728.18	179.303
728.51	178.121
728.84	176.303
729.16	175.000
729.49	173.364
729.81	171.667
730.14	169.879
730.46	168.121
730.79	166.636
731.12	165.152
731.44	163.970
731.77	163.152
732.09	161.424
732.42	160.000
732.74	158.455
733.07	157.667
733.39	156.545
733.72	155.152
734.04	153.818
734.37	152.273
734.69	151.273
735.02	150.121
735.34	148.424
735.67	147.515
735.99	146.364
736.32	145.273
736.64	143.848
736.97	142.455
737.29	141.273
737.62	140.303
737.94	139.545
738.27	138.576
738.59	137.273
738.91	135.939
739.24	134.667
739.56	133.758
739.89	132.333
740.21	131.485
740.54	130.818
740.86	130.061
741.18	129.273
741.51	128.333
741.83	126.939
742.16	126.061
742.48	125.091
742.80	124.273
743.13	123.303
743.45	122.455
743.77	121.545
744.10	120.424
744.42	119.424
744.75	118.364
745.07	117.364
745.39	116.576
745.72	115.939
746.04	115.455
746.36	114.697
746.69	114.121
747.01	113.576
747.33	112.606
747.66	111.879
747.98	111.182
748.30	110.515
748.62	109.879
748.95	109.515
749.27	108.788
749.59	108.212
749.92	107.818
750.24	106.727
750.56	105.909
750.88	105.515
751.21	105.212
751.53	104.939
751.85	104.273
752.17	103.606
752.50	102.939
752.82	102.545
753.14	102.121
753.46	101.333
753.79	100.939
754.11	100.333
754.43	99.788
754.75	99.061
755.07	98.000
755.40	98.121
755.72	97.758
756.04	97.333
756.36	96.939
756.68	96.545
757.01	96.030
757.33	95.545
757.65	95.091
757.97	94.636
758.29	93.848
758.61	93.697
758.94	92.697
759.26	92.333
759.58	92.091
759.90	91.182
760.22	90.545
760.54	90.030
760.86	89.848
761.18	89.697
761.51	89.545
761.83	89.727
762.15	89.485
762.47	89.333
762.79	88.727
763.11	88.333
763.43	88.273
763.75	88.000
764.07	87.879
764.39	87.364
764.71	87.000
765.03	86.485
765.35	86.121
765.68	85.727
766.00	85.424
766.32	85.061
766.64	84.515
766.96	84.182
767.28	83.697
767.60	83.152
767.92	82.970
768.24	82.667
768.56	82.394
768.88	82.030
769.20	81.758
769.52	81.333
769.84	81.152
770.16	81.212
770.48	81.030
770.80	80.848
771.12	80.636
771.44	80.061
771.76	79.636
772.07	79.364
772.39	79.000
772.71	78.727
773.03	78.606
773.35	78.212
773.67	77.879
773.99	77.576
774.31	77.303
774.63	77.424
774.95	77.364
775.27	77.152
775.59	76.879
775.91	76.697
776.22	76.515
776.54	76.030
776.86	75.909
777.18	75.515
777.50	75.424
777.82	75.182
778.14	74.818
778.46	74.606
778.77	74.758
779.09	74.939
779.41	74.848
779.73	74.727
