OOIBase32 Version 2.0.2.2 Data File
++++++++++++++++++++++++++++++++++++
Date: Monday, July 15, 2019, 09:22:55
User: Valued Ocean Optics Customer
Spectrometer Serial Number: I2J306
Spectrometer Channel: Master
Integration Time (msec): 100
Spectra Averaged: 3
Boxcar Smoothing: 5
Correct for Electrical Dark: Disabled
Time Normalized: Disabled
Dual-beam Reference: Disabled
Reference Channel: Master
Temperature: Not acquired
Spectrometer Type: S2000
ADC Type: ADC1000
Number of Pixels in File: 2048
Graph Title: 
>>>>>Begin Spectral Data<<<<<
332.72	
333.10	
333.48	49.333
333.86	50.333
334.24	52.667
334.61	54.000
334.99	51.667
335.37	50.333
335.75	54.333
336.13	58.000
336.51	56.333
336.89	52.667
337.26	53.333
337.64	56.000
338.02	56.667
338.40	56.333
338.78	55.333
339.16	56.000
339.53	58.333
339.91	68.667
340.29	59.000
340.67	58.303
341.05	58.606
341.42	58.758
341.80	58.909
342.18	58.273
342.56	58.758
342.94	58.939
343.31	59.455
343.69	59.455
344.07	59.242
344.45	59.515
344.82	59.515
345.20	59.545
345.58	59.606
345.96	59.515
346.33	59.152
346.71	58.485
347.09	58.333
347.46	58.212
347.84	58.273
348.22	58.545
348.60	58.455
348.97	58.606
349.35	58.515
349.73	58.545
350.10	58.545
350.48	58.545
350.86	58.879
351.23	58.697
351.61	58.667
351.99	58.485
352.36	58.515
352.74	58.515
353.12	58.030
353.49	58.212
353.87	58.455
354.25	58.576
354.62	58.636
355.00	58.394
355.37	58.424
355.75	58.333
356.13	58.545
356.50	58.424
356.88	58.273
357.25	58.636
357.63	58.485
358.01	58.242
358.38	57.818
358.76	57.727
359.13	58.030
359.51	58.152
359.88	58.061
360.26	58.061
360.64	57.970
361.01	58.182
361.39	58.030
361.76	58.364
362.14	58.606
362.51	58.848
362.89	58.909
363.26	58.636
363.64	58.909
364.01	59.091
364.39	59.091
364.76	59.152
365.14	59.242
365.51	59.394
365.89	59.182
366.26	58.909
366.64	58.909
367.01	58.970
367.39	58.727
367.76	58.485
368.14	58.303
368.51	58.212
368.88	58.424
369.26	58.576
369.63	58.758
370.01	58.818
370.38	58.848
370.76	58.788
371.13	58.697
371.50	59.121
371.88	59.152
372.25	59.485
372.63	59.121
373.00	58.970
373.37	58.727
373.75	58.606
374.12	58.364
374.50	58.455
374.87	58.333
375.24	58.576
375.62	58.515
375.99	58.606
376.36	58.455
376.74	59.030
377.11	59.273
377.48	59.242
377.86	59.152
378.23	59.091
378.60	58.970
378.98	59.030
379.35	58.636
379.72	58.424
380.10	58.152
380.47	58.152
380.84	58.242
381.22	58.061
381.59	58.061
381.96	58.091
382.33	58.273
382.71	58.273
383.08	58.788
383.45	58.879
383.82	59.212
384.20	59.636
384.57	59.788
384.94	59.667
385.31	60.091
385.69	60.152
386.06	60.242
386.43	60.303
386.80	60.303
387.18	60.000
387.55	59.939
387.92	61.970
388.29	61.939
388.66	61.939
389.04	62.333
389.41	61.939
389.78	61.970
390.15	62.182
390.52	62.273
390.90	62.455
391.27	62.576
391.64	62.970
392.01	60.879
392.38	60.848
392.75	61.030
393.12	60.697
393.50	60.576
393.87	60.636
394.24	60.424
394.61	60.576
394.98	60.697
395.35	61.152
395.72	61.333
396.09	61.485
396.46	61.697
396.84	61.727
397.21	62.000
397.58	62.818
397.95	63.303
398.32	65.212
398.69	66.030
399.06	66.636
399.43	66.788
399.80	67.273
400.17	67.788
400.54	68.545
400.91	69.242
401.28	69.758
401.65	70.515
402.02	71.424
402.39	71.030
402.76	71.576
403.13	72.394
403.50	73.606
403.87	75.030
404.24	76.515
404.61	77.576
404.98	79.333
405.35	81.242
405.72	82.848
406.09	84.333
406.46	86.061
406.83	87.788
407.20	89.939
407.57	91.758
407.94	93.667
408.31	95.909
408.68	98.606
409.05	100.788
409.42	103.606
409.79	106.182
410.16	109.273
410.53	111.818
410.90	114.879
411.26	117.970
411.63	121.303
412.00	124.576
412.37	128.061
412.74	131.727
413.11	135.697
413.48	139.121
413.85	143.000
414.22	147.000
414.58	151.303
414.95	155.697
415.32	160.121
415.69	164.879
416.06	170.061
416.43	174.424
416.80	178.879
417.16	183.364
417.53	188.455
417.90	193.667
418.27	199.000
418.64	205.273
419.00	211.152
419.37	217.030
419.74	223.121
420.11	228.939
420.48	235.879
420.84	243.121
421.21	250.091
421.58	257.576
421.95	264.848
422.32	272.212
422.68	279.333
423.05	287.242
423.42	295.636
423.79	304.000
424.15	313.000
424.52	322.879
424.89	332.788
425.25	343.333
425.62	354.364
425.99	366.000
426.36	377.182
426.72	389.636
427.09	402.515
427.46	415.394
427.82	428.788
428.19	442.576
428.56	455.909
428.93	469.818
429.29	484.909
429.66	499.515
430.03	514.636
430.39	531.697
430.76	547.667
431.13	563.333
431.49	579.818
431.86	596.030
432.22	612.909
432.59	630.000
432.96	648.667
433.32	665.788
433.69	683.788
434.06	700.939
434.42	717.061
434.79	733.515
435.15	749.697
435.52	763.364
435.89	779.000
436.25	793.576
436.62	807.606
436.98	821.152
437.35	834.000
437.71	846.333
438.08	858.364
438.45	870.000
438.81	882.606
439.18	893.212
439.54	904.636
439.91	913.818
440.27	922.061
440.64	930.091
441.00	935.727
441.37	941.727
441.73	945.545
442.10	949.970
442.46	952.818
442.83	955.242
443.19	957.788
443.56	961.485
443.92	963.091
444.29	964.818
444.65	965.212
445.02	966.424
445.38	963.212
445.75	961.576
446.11	960.455
446.48	959.818
446.84	956.545
447.21	953.333
447.57	947.303
447.93	943.152
448.30	937.909
448.66	930.576
449.03	922.182
449.39	916.788
449.76	910.697
450.12	902.242
450.48	892.364
450.85	881.515
451.21	870.818
451.58	860.848
451.94	848.152
452.30	835.758
452.67	826.121
453.03	814.879
453.39	803.061
453.76	789.879
454.12	775.848
454.48	760.879
454.85	746.273
455.21	731.636
455.57	718.455
455.94	706.333
456.30	692.727
456.66	677.242
457.03	662.939
457.39	649.333
457.75	635.121
458.12	621.121
458.48	609.273
458.84	598.273
459.21	586.970
459.57	573.545
459.93	560.727
460.29	549.364
460.66	538.182
461.02	527.030
461.38	516.151
461.74	506.151
462.11	497.212
462.47	487.576
462.83	477.576
463.19	468.091
463.56	460.121
463.92	450.788
464.28	441.121
464.64	432.788
465.01	424.485
465.37	416.242
465.73	408.485
466.09	400.394
466.45	393.212
466.82	385.788
467.18	378.848
467.54	371.151
467.90	364.818
468.26	358.273
468.62	352.303
468.99	345.758
469.35	339.515
469.71	333.727
470.07	328.303
470.43	322.273
470.79	317.152
471.15	311.818
471.52	306.545
471.88	301.333
472.24	297.424
472.60	292.697
472.96	288.545
473.32	285.151
473.68	281.485
474.04	278.091
474.40	275.212
474.77	272.485
475.13	269.364
475.49	266.788
475.85	265.061
476.21	262.909
476.57	261.485
476.93	260.212
477.29	258.515
477.65	257.000
478.01	255.576
478.37	254.727
478.73	253.394
479.09	252.879
479.45	252.455
479.81	252.485
480.17	252.273
480.53	251.727
480.89	251.879
481.25	252.576
481.61	253.091
481.97	254.121
482.33	254.758
482.69	256.212
483.05	257.970
483.41	260.394
483.77	262.424
484.13	264.394
484.49	266.576
484.85	269.212
485.21	271.576
485.57	274.212
485.93	277.151
486.29	280.394
486.65	284.000
487.01	287.455
487.37	290.515
487.72	293.636
488.08	298.030
488.44	302.667
488.80	307.303
489.16	312.849
489.52	319.030
489.88	324.303
490.24	330.212
490.60	336.758
490.95	343.394
491.31	350.818
491.67	358.273
492.03	366.970
492.39	375.909
492.75	384.758
493.11	393.030
493.46	402.061
493.82	411.909
494.18	422.091
494.54	432.242
494.90	443.818
495.26	455.121
495.61	466.818
495.97	478.121
496.33	489.636
496.69	502.515
497.05	515.758
497.40	528.970
497.76	542.515
498.12	556.667
498.48	570.606
498.84	584.364
499.19	598.364
499.55	613.455
499.91	628.303
500.27	644.212
500.62	659.000
500.98	674.333
501.34	689.697
501.69	705.273
502.05	721.667
502.41	738.667
502.77	755.182
503.12	772.303
503.48	788.606
503.84	806.212
504.19	823.455
504.55	841.454
504.91	859.788
505.27	877.758
505.62	896.939
505.98	915.576
506.34	934.091
506.69	952.879
507.05	971.364
507.41	991.485
507.76	1009.606
508.12	1027.545
508.47	1046.091
508.83	1065.576
509.19	1085.545
509.54	1104.121
509.90	1123.454
510.26	1142.515
510.61	1162.333
510.97	1182.485
511.32	1201.758
511.68	1221.273
512.04	1242.030
512.39	1262.091
512.75	1282.333
513.10	1302.030
513.46	1322.273
513.82	1341.697
514.17	1362.818
514.53	1383.788
514.88	1404.879
515.24	1425.394
515.59	1447.424
515.95	1470.454
516.30	1492.485
516.66	1513.788
517.01	1533.606
517.37	1555.364
517.72	1576.636
518.08	1597.212
518.44	1618.121
518.79	1638.121
519.15	1659.333
519.50	1680.212
519.85	1700.727
520.21	1721.394
520.56	1741.424
520.92	1762.606
521.27	1782.576
521.63	1802.606
521.98	1822.727
522.34	1841.667
522.69	1861.030
523.05	1879.667
523.40	1899.242
523.76	1915.727
524.11	1933.879
524.46	1952.121
524.82	1971.030
525.17	1989.636
525.53	2008.424
525.88	2029.667
526.24	2048.758
526.59	2068.636
526.94	2088.091
527.30	2107.030
527.65	2127.151
528.00	2145.121
528.36	2163.121
528.71	2182.697
529.07	2202.031
529.42	2219.970
529.77	2234.212
530.13	2252.879
530.48	2270.667
530.83	2289.182
531.19	2306.667
531.54	2323.515
531.89	2343.030
532.25	2361.970
532.60	2379.515
532.95	2396.182
533.31	2415.273
533.66	2434.333
534.01	2453.394
534.37	2473.515
534.72	2490.939
535.07	2509.364
535.42	2528.636
535.78	2545.697
536.13	2563.606
536.48	2581.424
536.83	2599.667
537.19	2615.394
537.54	2632.667
537.89	2647.879
538.24	2662.758
538.60	2677.969
538.95	2692.212
539.30	2707.091
539.65	2722.485
540.01	2737.849
540.36	2753.091
540.71	2767.364
541.06	2782.242
541.41	2796.364
541.77	2809.515
542.12	2818.728
542.47	2830.849
542.82	2844.000
543.17	2854.848
543.53	2865.667
543.88	2874.394
544.23	2883.182
544.58	2891.273
544.93	2900.212
545.28	2907.545
545.63	2915.242
545.99	2925.758
546.34	2931.849
546.69	2937.152
547.04	2943.909
547.39	2949.091
547.74	2955.212
548.09	2961.455
548.44	2967.000
548.80	2970.848
549.15	2976.606
549.50	2982.242
549.85	2988.545
550.20	2996.060
550.55	3002.515
550.90	3007.242
551.25	3012.424
551.60	3018.515
551.95	3023.970
552.30	3031.636
552.65	3040.939
553.00	3052.394
553.35	3061.364
553.71	3067.242
554.06	3072.727
554.41	3078.970
554.76	3086.091
555.11	3093.485
555.46	3101.697
555.81	3108.000
556.16	3116.121
556.51	3122.151
556.86	3124.242
557.21	3129.152
557.56	3136.364
557.91	3144.879
558.26	3152.424
558.61	3160.242
558.95	3168.181
559.30	3174.000
559.65	3181.394
560.00	3187.212
560.35	3193.667
560.70	3199.849
561.05	3207.970
561.40	3216.818
561.75	3226.000
562.10	3236.091
562.45	3247.939
562.80	3257.455
563.15	3267.606
563.50	3277.818
563.84	3286.485
564.19	3298.121
564.54	3308.485
564.89	3317.940
565.24	3327.485
565.59	3335.576
565.94	3343.364
566.29	3350.303
566.64	3358.939
566.98	3370.091
567.33	3380.636
567.68	3391.667
568.03	3401.698
568.38	3414.576
568.73	3424.424
569.07	3434.394
569.42	3445.727
569.77	3457.606
570.12	3467.969
570.47	3479.485
570.81	3486.182
571.16	3495.576
571.51	3504.515
571.86	3511.182
572.21	3519.242
572.55	3531.151
572.90	3539.576
573.25	3549.242
573.60	3559.333
573.95	3568.000
574.29	3579.364
574.64	3593.030
574.99	3603.667
575.34	3614.485
575.68	3628.485
576.03	3640.303
576.38	3650.000
576.72	3663.515
577.07	3675.424
577.42	3686.394
577.77	3698.182
578.11	3707.515
578.46	3716.939
578.81	3726.727
579.15	3736.636
579.50	3744.485
579.85	3753.273
580.19	3760.121
580.54	3766.576
580.89	3773.576
581.23	3779.182
581.58	3786.121
581.93	3792.182
582.27	3797.879
582.62	3801.818
582.97	3808.303
583.31	3811.939
583.66	3814.424
584.01	3819.485
584.35	3824.060
584.70	3828.031
585.04	3831.879
585.39	3835.152
585.74	3836.576
586.08	3838.364
586.43	3843.000
586.77	3843.181
587.12	3844.758
587.47	3846.909
587.81	3846.152
588.16	3844.515
588.50	3843.000
588.85	3840.212
589.19	3836.272
589.54	3834.151
589.88	3830.909
590.23	3826.364
590.58	3823.849
590.92	3820.424
591.27	3816.242
591.61	3814.576
591.96	3809.909
592.30	3804.394
592.65	3799.758
592.99	3795.879
593.34	3791.546
593.68	3787.273
594.03	3781.697
594.37	3775.151
594.72	3769.848
595.06	3763.576
595.41	3754.485
595.75	3747.182
596.09	3740.879
596.44	3733.152
596.78	3726.485
597.13	3715.272
597.47	3700.576
597.82	3684.545
598.16	3667.546
598.51	3650.000
598.85	3630.516
599.19	3612.394
599.54	3594.697
599.88	3574.667
600.23	3555.394
600.57	3533.818
600.91	3514.242
601.26	3498.970
601.60	3483.182
601.95	3468.637
602.29	3453.576
602.63	3439.879
602.98	3424.969
603.32	3409.454
603.66	3394.272
604.01	3379.152
604.35	3364.394
604.69	3350.424
605.04	3334.303
605.38	3319.455
605.72	3304.060
606.07	3289.272
606.41	3274.000
606.75	3258.273
607.10	3243.212
607.44	3228.879
607.78	3214.121
608.13	3198.424
608.47	3183.060
608.81	3167.636
609.15	3152.303
609.50	3134.758
609.84	3116.758
610.18	3100.061
610.52	3081.515
610.87	3064.031
611.21	3045.152
611.55	3027.424
611.89	3009.545
612.24	2990.818
612.58	2972.879
612.92	2955.818
613.26	2940.030
613.61	2922.727
613.95	2906.151
614.29	2891.364
614.63	2874.848
614.97	2859.606
615.32	2841.667
615.66	2825.940
616.00	2811.667
616.34	2793.879
616.68	2776.970
617.02	2761.121
617.37	2745.758
617.71	2730.303
618.05	2714.849
618.39	2699.303
618.73	2683.364
619.07	2669.697
619.42	2654.121
619.76	2637.758
620.10	2624.000
620.44	2611.242
620.78	2596.061
621.12	2580.242
621.46	2562.879
621.80	2547.212
622.14	2532.848
622.49	2517.030
622.83	2498.788
623.17	2483.091
623.51	2468.364
623.85	2452.091
624.19	2433.606
624.53	2417.273
624.87	2402.545
625.21	2388.121
625.55	2372.515
625.89	2354.424
626.23	2339.333
626.57	2325.939
626.91	2309.758
627.25	2293.636
627.59	2279.303
627.93	2265.182
628.27	2250.727
628.61	2234.758
628.95	2220.515
629.29	2206.152
629.63	2191.697
629.97	2175.394
630.31	2160.454
630.65	2147.121
630.99	2132.909
631.33	2119.182
631.67	2104.788
632.01	2089.818
632.35	2076.091
632.69	2060.273
633.03	2044.727
633.37	2030.636
633.71	2018.363
634.05	2003.879
634.39	1988.758
634.73	1974.546
635.07	1959.606
635.41	1944.697
635.75	1931.242
636.09	1917.000
636.42	1903.242
636.76	1889.515
637.10	1876.394
637.44	1862.364
637.78	1849.455
638.12	1836.303
638.46	1821.636
638.80	1809.363
639.13	1796.939
639.47	1783.606
639.81	1769.424
640.15	1755.818
640.49	1742.121
640.83	1727.818
641.17	1713.061
641.50	1699.000
641.84	1684.606
642.18	1671.879
642.52	1657.212
642.86	1643.000
643.19	1628.788
643.53	1614.970
643.87	1601.667
644.21	1588.030
644.55	1575.061
644.88	1562.273
645.22	1548.939
645.56	1536.151
645.90	1521.788
646.23	1508.727
646.57	1496.394
646.91	1483.000
647.25	1471.212
647.59	1457.727
647.92	1445.091
648.26	1431.970
648.60	1419.061
648.93	1406.576
649.27	1394.061
649.61	1381.000
649.95	1366.364
650.28	1350.303
650.62	1335.788
650.96	1322.212
651.29	1307.849
651.63	1294.758
651.97	1281.849
652.30	1268.091
652.64	1254.818
652.98	1241.333
653.31	1229.485
653.65	1217.364
653.99	1207.030
654.32	1196.273
654.66	1184.303
655.00	1173.091
655.33	1160.879
655.67	1148.121
656.01	1135.151
656.34	1123.242
656.68	1111.182
657.01	1098.606
657.35	1087.515
657.69	1074.242
658.02	1062.030
658.36	1050.303
658.69	1039.424
659.03	1029.333
659.37	1019.364
659.70	1009.515
660.04	998.121
660.37	986.576
660.71	976.030
661.04	964.697
661.38	954.182
661.72	943.849
662.05	934.485
662.39	924.242
662.72	911.909
663.06	900.545
663.39	890.333
663.73	880.939
664.06	871.606
664.40	861.727
664.73	851.546
665.07	842.333
665.40	832.606
665.74	821.758
666.07	811.697
666.41	803.485
666.74	793.818
667.08	783.788
667.41	773.606
667.75	764.273
668.08	754.939
668.41	746.121
668.75	737.788
669.08	728.879
669.42	721.061
669.75	712.121
670.09	703.030
670.42	694.697
670.76	687.364
671.09	679.515
671.42	672.212
671.76	664.697
672.09	656.576
672.43	648.394
672.76	641.697
673.09	634.061
673.43	626.879
673.76	620.242
674.09	613.727
674.43	606.697
674.76	599.758
675.10	592.576
675.43	586.455
675.76	580.788
676.10	574.849
676.43	568.273
676.76	562.030
677.10	556.727
677.43	550.970
677.76	545.364
678.10	539.091
678.43	533.364
678.76	528.091
679.09	522.697
679.43	517.121
679.76	511.879
680.09	506.242
680.43	501.000
680.76	495.576
681.09	489.333
681.42	484.152
681.76	479.758
682.09	474.909
682.42	469.970
682.75	464.606
683.09	459.879
683.42	454.939
683.75	450.697
684.08	446.424
684.42	441.970
684.75	438.424
685.08	433.909
685.41	429.485
685.74	425.000
686.08	420.667
686.41	416.182
686.74	412.364
687.07	408.182
687.40	403.970
687.74	399.182
688.07	395.242
688.40	390.818
688.73	386.485
689.06	382.576
689.39	379.242
689.73	374.879
690.06	371.667
690.39	367.000
690.72	363.515
691.05	359.939
691.38	356.667
691.71	353.394
692.04	350.000
692.38	347.121
692.71	344.121
693.04	340.576
693.37	337.394
693.70	333.576
694.03	331.061
694.36	327.818
694.69	324.485
695.02	321.515
695.35	318.000
695.68	315.303
696.02	312.485
696.35	309.182
696.68	306.758
697.01	304.273
697.34	301.545
697.67	298.545
698.00	295.848
698.33	294.030
698.66	291.576
698.99	289.242
699.32	286.667
699.65	284.151
699.98	281.758
700.31	279.182
700.64	276.545
700.97	274.455
701.30	272.091
701.63	269.939
701.96	267.061
702.29	264.394
702.62	261.697
702.95	259.333
703.28	256.939
703.61	254.545
703.94	251.758
704.26	249.939
704.59	247.576
704.92	245.636
705.25	243.545
705.58	241.606
705.91	240.000
706.24	238.152
706.57	235.697
706.90	233.455
707.23	231.667
707.56	229.909
707.89	227.636
708.21	225.212
708.54	222.970
708.87	220.727
709.20	218.515
709.53	216.333
709.86	214.424
710.19	212.788
710.51	211.182
710.84	209.061
711.17	206.970
711.50	205.152
711.83	203.848
712.16	202.364
712.48	200.667
712.81	198.636
713.14	196.455
713.47	194.818
713.80	193.364
714.13	191.273
714.45	189.273
714.78	187.818
715.11	186.606
715.44	185.121
715.76	184.030
716.09	182.939
716.42	181.485
716.75	180.394
717.08	179.030
717.40	177.636
717.73	176.788
718.06	176.182
718.38	174.667
718.71	172.758
719.04	171.394
719.37	169.636
719.69	167.879
720.02	166.758
720.35	165.636
720.68	164.424
721.00	162.879
721.33	161.121
721.66	159.182
721.98	158.212
722.31	157.121
722.64	155.697
722.96	154.303
723.29	153.000
723.62	151.788
723.94	150.667
724.27	149.030
724.60	147.818
724.92	146.818
725.25	146.242
725.58	145.061
725.90	144.273
726.23	143.333
726.55	142.394
726.88	141.273
727.21	139.818
727.53	138.576
727.86	137.667
728.18	136.909
728.51	136.121
728.84	134.848
729.16	133.727
729.49	132.333
729.81	131.515
730.14	130.455
730.46	129.364
730.79	128.939
731.12	128.061
731.44	127.242
731.77	126.545
732.09	125.727
732.42	125.000
732.74	124.303
733.07	123.758
733.39	122.576
733.72	121.576
734.04	120.909
734.37	119.727
734.69	118.636
735.02	118.061
735.34	117.152
735.67	116.273
735.99	115.273
736.32	114.333
736.64	113.394
736.97	112.727
737.29	112.212
737.62	111.697
737.94	110.939
738.27	110.424
738.59	109.606
738.91	109.030
739.24	108.364
739.56	107.364
739.89	106.697
740.21	106.000
740.54	105.333
740.86	104.455
741.18	103.848
741.51	103.788
741.83	103.030
742.16	102.152
742.48	101.333
742.80	100.364
743.13	100.091
743.45	99.485
743.77	98.970
744.10	98.545
744.42	98.152
744.75	97.697
745.07	96.879
745.39	96.485
745.72	96.333
746.04	96.152
746.36	96.000
746.69	95.667
747.01	95.182
747.33	94.788
747.66	94.242
747.98	93.909
748.30	93.667
748.62	93.273
748.95	92.818
749.27	92.152
749.59	91.758
749.92	91.182
750.24	90.818
750.56	90.424
750.88	90.152
751.21	89.848
751.53	89.455
751.85	88.606
752.17	88.303
752.50	87.848
752.82	87.394
753.14	86.697
753.46	86.455
753.79	86.182
754.11	85.848
754.43	85.273
754.75	84.939
755.07	84.515
755.40	84.727
755.72	84.758
756.04	84.788
756.36	84.485
756.68	84.273
757.01	83.879
757.33	83.273
757.65	83.455
757.97	83.394
758.29	82.970
758.61	82.545
758.94	81.515
759.26	80.758
759.58	80.182
759.90	80.303
760.22	79.939
760.54	79.727
760.86	79.636
761.18	78.970
761.51	78.485
761.83	78.364
762.15	78.394
762.47	78.424
762.79	78.061
763.11	77.939
763.43	77.242
763.75	76.879
764.07	76.818
764.39	76.485
764.71	76.303
765.03	76.212
765.35	76.152
765.68	75.909
766.00	75.818
766.32	75.727
766.64	75.394
766.96	75.424
767.28	75.030
767.60	74.606
767.92	74.545
768.24	74.121
768.56	73.788
768.88	73.455
769.20	73.333
769.52	72.788
769.84	72.545
770.16	72.212
770.48	72.061
770.80	72.242
771.12	72.182
771.44	71.667
771.76	71.848
772.07	71.758
772.39	71.394
772.71	71.091
773.03	71.242
773.35	70.939
773.67	71.091
773.99	70.970
774.31	70.576
774.63	70.333
774.95	70.394
775.27	70.061
775.59	69.667
775.91	69.424
776.22	69.182
776.54	68.879
776.86	69.000
777.18	68.636
777.50	68.333
777.82	68.455
778.14	68.364
778.46	68.364
778.77	68.455
779.09	68.424
779.41	68.485
779.73	68.545
780.05	68.485
780.37	68.242
780.68	68.515
781.00	68.455
781.32	68.212
781.64	68.000
781.96	68.061
