OOIBase32 Version 2.0.2.2 Data File
++++++++++++++++++++++++++++++++++++
Date: Friday, July 12, 2019, 09:03:03
User: Valued Ocean Optics Customer
Spectrometer Serial Number: I2J306
Spectrometer Channel: Master
Integration Time (msec): 100
Spectra Averaged: 3
Boxcar Smoothing: 5
Correct for Electrical Dark: Disabled
Time Normalized: Disabled
Dual-beam Reference: Disabled
Reference Channel: Master
Temperature: Not acquired
Spectrometer Type: S2000
ADC Type: ADC1000
Number of Pixels in File: 2048
Graph Title: 
>>>>>Begin Spectral Data<<<<<
332.72	0.000
333.10	0.000
333.48	54.333
333.86	56.667
334.24	54.333
334.61	57.333
334.99	54.333
335.37	54.333
335.75	54.667
336.13	57.667
336.51	57.667
336.89	56.333
337.26	56.667
337.64	56.667
338.02	59.333
338.40	60.000
338.78	61.000
339.16	60.333
339.53	61.333
339.91	69.000
340.29	63.000
340.67	61.818
341.05	61.909
341.42	61.909
341.80	61.879
342.18	61.636
342.56	61.848
342.94	61.939
343.31	62.121
343.69	62.273
344.07	61.909
344.45	62.091
344.82	62.091
345.20	62.000
345.58	62.182
345.96	62.303
346.33	61.606
346.71	61.182
347.09	61.121
347.46	60.758
347.84	60.485
348.22	60.515
348.60	60.212
348.97	60.303
349.35	60.303
349.73	60.212
350.10	60.121
350.48	60.545
350.86	60.667
351.23	60.818
351.61	61.000
351.99	61.030
352.36	60.970
352.74	61.000
353.12	60.879
353.49	60.879
353.87	60.818
354.25	60.576
354.62	60.333
355.00	60.394
355.37	60.121
355.75	60.212
356.13	60.152
356.50	60.212
356.88	60.273
357.25	60.515
357.63	60.606
358.01	60.667
358.38	60.939
358.76	60.848
359.13	60.788
359.51	60.970
359.88	60.727
360.26	60.909
360.64	60.909
361.01	61.091
361.39	61.000
361.76	61.000
362.14	61.364
362.51	61.455
362.89	61.545
363.26	61.485
363.64	61.576
364.01	61.788
364.39	61.939
364.76	62.061
365.14	61.970
365.51	62.182
365.89	62.091
366.26	61.697
366.64	61.576
367.01	61.545
367.39	61.545
367.76	61.364
368.14	61.424
368.51	61.515
368.88	61.606
369.26	61.788
369.63	61.485
370.01	61.394
370.38	61.455
370.76	61.576
371.13	61.758
371.50	61.697
371.88	61.697
372.25	61.818
372.63	61.455
373.00	61.545
373.37	61.212
373.75	61.242
374.12	61.394
374.50	61.333
374.87	61.273
375.24	61.303
375.62	61.515
375.99	61.879
376.36	61.606
376.74	61.939
377.11	61.818
377.48	62.061
377.86	62.030
378.23	62.030
378.60	62.091
378.98	61.909
379.35	61.545
379.72	61.303
380.10	61.030
380.47	61.303
380.84	61.152
381.22	61.000
381.59	60.758
381.96	60.909
382.33	60.848
382.71	60.909
383.08	61.424
383.45	61.818
383.82	62.061
384.20	62.212
384.57	62.030
384.94	62.152
385.31	62.545
385.69	62.636
386.06	62.848
386.43	62.909
386.80	62.818
387.18	62.273
387.55	61.818
387.92	63.727
388.29	63.788
388.66	63.939
389.04	63.939
389.41	63.333
389.78	63.303
390.15	63.152
390.52	63.121
390.90	63.152
391.27	63.182
391.64	63.515
392.01	61.424
392.38	61.303
392.75	61.333
393.12	61.212
393.50	61.303
393.87	61.152
394.24	61.182
394.61	61.182
394.98	61.030
395.35	61.303
395.72	61.212
396.09	61.152
396.46	61.121
396.84	61.212
397.21	61.364
397.58	61.545
397.95	61.939
398.32	63.455
398.69	63.970
399.06	64.061
399.43	64.212
399.80	64.364
400.17	64.364
400.54	64.364
400.91	64.091
401.28	63.909
401.65	64.364
402.02	64.273
402.39	62.788
402.76	62.303
403.13	62.394
403.50	62.273
403.87	62.030
404.24	62.091
404.61	61.848
404.98	61.939
405.35	62.212
405.72	62.000
406.09	62.242
406.46	62.242
406.83	62.273
407.20	62.424
407.57	62.273
407.94	62.485
408.31	62.576
408.68	62.909
409.05	62.818
409.42	62.848
409.79	62.848
410.16	62.697
410.53	62.818
410.90	63.121
411.26	63.152
411.63	63.485
412.00	63.606
412.37	63.818
412.74	63.879
413.11	64.182
413.48	64.091
413.85	64.333
414.22	64.606
414.58	64.545
414.95	64.515
415.32	64.909
415.69	65.030
416.06	65.242
416.43	65.152
416.80	65.455
417.16	65.515
417.53	65.909
417.90	66.030
418.27	66.152
418.64	66.758
419.00	67.030
419.37	66.939
419.74	67.273
420.11	67.485
420.48	68.061
420.84	68.152
421.21	68.697
421.58	69.061
421.95	69.333
422.32	69.636
422.68	69.758
423.05	69.970
423.42	70.455
423.79	70.848
424.15	71.333
424.52	72.000
424.89	72.667
425.25	73.333
425.62	73.667
425.99	74.455
426.36	75.333
426.72	75.879
427.09	76.515
427.46	77.121
427.82	77.848
428.19	78.636
428.56	79.424
428.93	80.394
429.29	81.303
429.66	82.394
430.03	83.394
430.39	84.273
430.76	85.424
431.13	87.212
431.49	88.636
431.86	89.879
432.22	91.303
432.59	92.727
432.96	94.606
433.32	96.364
433.69	98.455
434.06	99.788
434.42	101.545
434.79	103.182
435.15	104.333
435.52	105.909
435.89	107.424
436.25	108.788
436.62	110.333
436.98	111.939
437.35	113.909
437.71	115.303
438.08	117.333
438.45	119.091
438.81	121.424
439.18	123.758
439.54	125.636
439.91	127.848
440.27	130.091
440.64	132.242
441.00	133.909
441.37	135.485
441.73	137.545
442.10	139.818
442.46	142.515
442.83	144.697
443.19	147.455
443.56	150.606
443.92	153.545
444.29	157.030
444.65	160.364
445.02	164.242
445.38	167.909
445.75	171.727
446.11	175.697
446.48	179.576
446.84	184.303
447.21	188.606
447.57	193.273
447.93	197.727
448.30	202.667
448.66	206.939
449.03	211.182
449.39	215.667
449.76	220.121
450.12	224.455
450.48	228.576
450.85	231.636
451.21	234.667
451.58	237.697
451.94	240.394
452.30	242.273
452.67	244.727
453.03	246.182
453.39	246.879
453.76	247.455
454.12	247.273
454.48	246.303
454.85	245.303
455.21	244.030
455.57	242.091
455.94	240.242
456.30	237.333
456.66	233.970
457.03	230.939
457.39	227.939
457.75	224.091
458.12	220.576
458.48	217.242
458.84	213.879
459.21	209.545
459.57	205.364
459.93	201.061
460.29	197.455
460.66	194.182
461.02	190.121
461.38	186.576
461.74	183.545
462.11	180.303
462.47	176.818
462.83	173.758
463.19	171.697
463.56	169.788
463.92	167.848
464.28	165.727
464.64	163.303
465.01	161.606
465.37	159.727
465.73	158.242
466.09	156.879
466.45	155.848
466.82	154.697
467.18	153.636
467.54	152.364
467.90	151.364
468.26	150.606
468.62	150.061
468.99	149.515
469.35	148.848
469.71	147.818
470.07	146.848
470.43	146.303
470.79	145.636
471.15	144.909
471.52	143.545
471.88	142.545
472.24	141.697
472.60	140.909
472.96	140.333
473.32	139.455
473.68	138.697
474.04	138.455
474.40	137.727
474.77	137.000
475.13	136.364
475.49	135.939
475.85	135.485
476.21	135.273
476.57	134.788
476.93	134.212
477.29	134.182
477.65	134.242
478.01	133.667
478.37	133.606
478.73	134.121
479.09	134.364
479.45	134.939
479.81	135.576
480.17	136.030
480.53	136.879
480.89	137.545
481.25	138.697
481.61	139.939
481.97	141.333
482.33	143.091
482.69	144.364
483.05	146.152
483.41	148.303
483.77	150.667
484.13	152.576
484.49	154.636
484.85	157.727
485.21	160.424
485.57	163.091
485.93	165.970
486.29	168.848
486.65	171.848
487.01	175.212
487.37	179.152
487.72	182.636
488.08	186.727
488.44	191.455
488.80	195.273
489.16	199.879
489.52	204.818
489.88	209.939
490.24	215.152
490.60	220.727
490.95	227.030
491.31	233.061
491.67	239.576
492.03	247.000
492.39	253.879
492.75	261.545
493.11	269.576
493.46	277.727
493.82	286.455
494.18	295.788
494.54	305.636
494.90	315.606
495.26	325.212
495.61	335.606
495.97	345.818
496.33	356.727
496.69	368.606
497.05	381.121
497.40	393.606
497.76	406.485
498.12	419.455
498.48	433.121
498.84	447.182
499.19	462.515
499.55	477.455
499.91	493.485
500.27	510.364
500.62	526.364
500.98	542.667
501.34	561.303
501.69	578.818
502.05	597.182
502.41	615.182
502.77	632.818
503.12	651.030
503.48	670.061
503.84	688.455
504.19	706.879
504.55	727.091
504.91	747.121
505.27	765.515
505.62	785.273
505.98	805.000
506.34	824.303
506.69	846.121
507.05	866.061
507.41	886.485
507.76	908.242
508.12	928.909
508.47	948.909
508.83	968.364
509.19	988.121
509.54	1009.364
509.90	1031.364
510.26	1052.909
510.61	1072.636
510.97	1094.212
511.32	1116.455
511.68	1136.333
512.04	1157.364
512.39	1178.485
512.75	1200.606
513.10	1222.697
513.46	1243.273
513.82	1262.818
514.17	1284.242
514.53	1306.394
514.88	1326.394
515.24	1346.151
515.59	1367.667
515.95	1389.697
516.30	1411.545
516.66	1432.000
517.01	1452.545
517.37	1473.697
517.72	1495.303
518.08	1515.091
518.44	1535.212
518.79	1556.273
519.15	1577.818
519.50	1597.727
519.85	1617.515
520.21	1638.091
520.56	1658.000
520.92	1677.667
521.27	1698.061
521.63	1717.212
521.98	1737.303
522.34	1756.485
522.69	1775.697
523.05	1793.455
523.40	1813.394
523.76	1831.515
524.11	1849.121
524.46	1867.424
524.82	1886.151
525.17	1902.727
525.53	1919.485
525.88	1937.788
526.24	1954.818
526.59	1972.121
526.94	1988.727
527.30	2003.061
527.65	2019.637
528.00	2036.091
528.36	2052.818
528.71	2067.909
529.07	2084.212
529.42	2100.849
529.77	2115.455
530.13	2132.242
530.48	2148.969
530.83	2166.030
531.19	2183.454
531.54	2200.151
531.89	2216.303
532.25	2232.152
532.60	2249.576
532.95	2266.333
533.31	2283.333
533.66	2299.697
534.01	2316.182
534.37	2332.454
534.72	2347.879
535.07	2362.758
535.42	2377.576
535.78	2392.970
536.13	2409.273
536.48	2426.182
536.83	2443.000
537.19	2457.424
537.54	2474.303
537.89	2487.970
538.24	2502.182
538.60	2517.182
538.95	2532.909
539.30	2548.242
539.65	2562.364
540.01	2575.788
540.36	2587.151
540.71	2599.394
541.06	2612.242
541.41	2623.515
541.77	2635.576
542.12	2645.303
542.47	2656.545
542.82	2667.061
543.17	2678.939
543.53	2690.697
543.88	2701.515
544.23	2714.061
544.58	2723.667
544.93	2733.091
545.28	2741.939
545.63	2751.364
545.99	2762.424
546.34	2769.485
546.69	2777.182
547.04	2783.818
547.39	2789.030
547.74	2793.697
548.09	2797.485
548.44	2802.364
548.80	2808.545
549.15	2815.485
549.50	2820.515
549.85	2827.333
550.20	2833.879
550.55	2842.121
550.90	2845.788
551.25	2851.485
551.60	2858.758
551.95	2865.818
552.30	2873.697
552.65	2882.030
553.00	2892.303
553.35	2903.212
553.71	2910.182
554.06	2918.788
554.41	2923.909
554.76	2934.000
555.11	2943.636
555.46	2953.758
555.81	2962.818
556.16	2971.879
556.51	2978.909
556.86	2983.424
557.21	2989.697
557.56	2997.909
557.91	3006.788
558.26	3016.121
558.61	3024.667
558.95	3034.273
559.30	3043.121
559.65	3052.697
560.00	3063.212
560.35	3075.242
560.70	3086.485
561.05	3096.879
561.40	3108.818
561.75	3121.788
562.10	3137.000
562.45	3151.151
562.80	3163.273
563.15	3176.394
563.50	3187.879
563.84	3200.485
564.19	3211.485
564.54	3224.758
564.89	3236.849
565.24	3250.000
565.59	3261.515
565.94	3272.242
566.29	3285.273
566.64	3298.303
566.98	3312.000
567.33	3325.848
567.68	3339.061
568.03	3355.424
568.38	3371.788
568.73	3386.031
569.07	3398.121
569.42	3411.909
569.77	3428.091
570.12	3440.697
570.47	3456.151
570.81	3467.121
571.16	3481.849
571.51	3496.212
571.86	3508.545
572.21	3521.606
572.55	3538.212
572.90	3554.697
573.25	3569.454
573.60	3582.333
573.95	3596.212
574.29	3609.879
574.64	3625.909
574.99	3639.697
575.34	3652.788
575.68	3666.879
576.03	3677.969
576.38	3689.788
576.72	3702.697
577.07	3715.636
577.42	3729.031
577.77	3741.637
578.11	3751.940
578.46	3761.152
578.81	3773.121
579.15	3783.333
579.50	3790.727
579.85	3801.576
580.19	3810.303
580.54	3817.485
580.89	3826.333
581.23	3833.606
581.58	3842.909
581.93	3852.727
582.27	3861.939
582.62	3867.545
582.97	3874.182
583.31	3883.727
583.66	3890.545
584.01	3896.818
584.35	3903.212
584.70	3909.030
585.04	3915.061
585.39	3920.000
585.74	3924.121
586.08	3929.636
586.43	3936.091
586.77	3942.273
587.12	3947.424
587.47	3951.697
587.81	3955.727
588.16	3959.879
588.50	3962.424
588.85	3964.788
589.19	3965.515
589.54	3967.060
589.88	3968.757
590.23	3968.879
590.58	3969.758
590.92	3968.606
591.27	3967.849
591.61	3967.879
591.96	3966.000
592.30	3964.272
592.65	3962.242
592.99	3960.546
593.34	3957.879
593.68	3954.424
594.03	3950.060
594.37	3944.212
594.72	3939.636
595.06	3933.758
595.41	3924.909
595.75	3918.304
596.09	3913.091
596.44	3905.819
596.78	3898.939
597.13	3890.758
597.47	3881.970
597.82	3875.485
598.16	3868.273
598.51	3861.060
598.85	3853.909
599.19	3848.485
599.54	3841.273
599.88	3832.394
600.23	3825.485
600.57	3817.485
600.91	3810.394
601.26	3802.849
601.60	3794.121
601.95	3786.758
602.29	3778.818
602.63	3770.212
602.98	3761.455
603.32	3753.394
603.66	3745.576
604.01	3735.849
604.35	3728.424
604.69	3721.242
605.04	3712.576
605.38	3703.091
605.72	3694.061
606.07	3684.273
606.41	3675.061
606.75	3666.000
607.10	3656.273
607.44	3645.485
607.78	3635.333
608.13	3622.333
608.47	3605.697
608.81	3587.849
609.15	3569.333
609.50	3548.182
609.84	3526.879
610.18	3505.030
610.52	3483.636
610.87	3461.818
611.21	3439.060
611.55	3415.030
611.89	3392.061
612.24	3372.151
612.58	3355.000
612.92	3338.152
613.26	3321.061
613.61	3302.576
613.95	3284.545
614.29	3265.121
614.63	3247.182
614.97	3231.212
615.32	3214.091
615.66	3196.667
616.00	3178.667
616.34	3160.818
616.68	3143.242
617.02	3126.212
617.37	3111.424
617.71	3096.424
618.05	3080.151
618.39	3064.485
618.73	3043.515
619.07	3027.424
619.42	3011.303
619.76	2994.940
620.10	2976.697
620.44	2958.849
620.78	2942.030
621.12	2925.636
621.46	2908.152
621.80	2891.545
622.14	2872.212
622.49	2856.849
622.83	2838.909
623.17	2820.879
623.51	2804.455
623.85	2787.909
624.19	2770.788
624.53	2750.970
624.87	2730.939
625.21	2714.242
625.55	2697.485
625.89	2680.515
626.23	2664.212
626.57	2646.424
626.91	2629.667
627.25	2611.576
627.59	2595.485
627.93	2580.546
628.27	2564.576
628.61	2546.455
628.95	2527.151
629.29	2509.272
629.63	2492.061
629.97	2474.545
630.31	2459.394
630.65	2443.333
630.99	2425.121
631.33	2407.061
631.67	2388.182
632.01	2373.121
632.35	2359.333
632.69	2343.758
633.03	2327.546
633.37	2310.909
633.71	2295.091
634.05	2279.121
634.39	2261.606
634.73	2246.242
635.07	2230.636
635.41	2214.788
635.75	2198.758
636.09	2181.667
636.42	2165.182
636.76	2148.879
637.10	2133.061
637.44	2116.849
637.78	2100.152
638.12	2085.667
638.46	2070.667
638.80	2055.636
639.13	2041.818
639.47	2026.151
639.81	2010.212
640.15	1995.303
640.49	1979.788
640.83	1964.667
641.17	1949.455
641.50	1933.879
641.84	1916.818
642.18	1898.939
642.52	1881.455
642.86	1864.182
643.19	1846.788
643.53	1830.909
643.87	1814.939
644.21	1799.545
644.55	1782.636
644.88	1766.061
645.22	1750.273
645.56	1734.849
645.90	1721.091
646.23	1706.970
646.57	1691.243
646.91	1675.061
647.25	1660.333
647.59	1643.848
647.92	1628.182
648.26	1613.121
648.60	1597.303
648.93	1581.000
649.27	1565.000
649.61	1549.151
649.95	1532.243
650.28	1517.061
650.62	1502.152
650.96	1485.970
651.29	1470.364
651.63	1453.727
651.97	1438.515
652.30	1423.879
652.64	1408.182
652.98	1394.151
653.31	1379.667
653.65	1365.788
653.99	1350.758
654.32	1336.939
654.66	1322.818
655.00	1309.364
655.33	1296.212
655.67	1283.273
656.01	1268.939
656.34	1255.061
656.68	1238.909
657.01	1223.879
657.35	1209.515
657.69	1195.697
658.02	1181.455
658.36	1168.151
658.69	1154.788
659.03	1142.182
659.37	1127.849
659.70	1114.727
660.04	1102.939
660.37	1090.818
660.71	1078.727
661.04	1066.849
661.38	1053.788
661.72	1041.485
662.05	1029.333
662.39	1016.515
662.72	1003.697
663.06	992.061
663.39	980.212
663.73	967.000
664.06	955.303
664.40	942.727
664.73	930.576
665.07	919.091
665.40	908.485
665.74	896.879
666.07	886.545
666.41	875.758
666.74	864.545
667.08	852.697
667.41	842.121
667.75	832.606
668.08	823.061
668.41	813.061
668.75	803.576
669.08	793.121
669.42	783.455
669.75	773.121
670.09	763.394
670.42	754.182
670.76	746.000
671.09	737.545
671.42	727.515
671.76	718.364
672.09	709.909
672.43	700.939
672.76	692.273
673.09	683.909
673.43	675.849
673.76	667.545
674.09	659.424
674.43	652.091
674.76	644.576
675.10	637.333
675.43	630.424
675.76	622.970
676.10	615.242
676.43	607.879
676.76	600.455
677.10	593.394
677.43	586.909
677.76	580.182
678.10	572.061
678.43	564.424
678.76	558.061
679.09	550.939
679.43	544.030
679.76	537.849
680.09	532.333
680.43	526.000
680.76	520.455
681.09	514.485
681.42	508.939
681.76	503.303
682.09	497.970
682.42	492.697
682.75	488.061
683.09	483.273
683.42	478.545
683.75	473.212
684.08	468.515
684.42	463.000
684.75	457.424
685.08	452.636
685.41	448.606
685.74	444.879
686.08	440.212
686.41	435.303
686.74	430.424
687.07	425.333
687.40	421.091
687.74	416.667
688.07	411.939
688.40	406.909
688.73	402.061
689.06	397.303
689.39	392.151
689.73	387.151
690.06	382.303
690.39	377.879
690.72	374.182
691.05	370.151
691.38	365.636
691.71	362.152
692.04	359.273
692.38	355.424
692.71	352.212
693.04	348.697
693.37	345.697
693.70	342.394
694.03	339.333
694.36	335.636
694.69	331.636
695.02	328.818
695.35	325.424
695.68	322.364
696.02	319.000
696.35	315.242
696.68	312.091
697.01	308.909
697.34	305.727
697.67	302.121
698.00	298.909
698.33	296.152
698.66	292.848
698.99	289.909
699.32	286.576
699.65	284.273
699.98	281.788
700.31	279.424
700.64	276.242
700.97	273.758
701.30	271.636
701.63	269.212
701.96	266.727
702.29	264.212
702.62	261.515
702.95	259.515
703.28	257.061
703.61	254.606
703.94	251.424
704.26	249.636
704.59	247.303
704.92	244.788
705.25	242.697
705.58	240.212
705.91	238.364
706.24	236.182
706.57	233.455
706.90	231.182
707.23	229.121
707.56	227.091
707.89	224.394
708.21	222.000
708.54	219.485
708.87	217.212
709.20	215.424
709.53	213.515
709.86	211.818
710.19	210.182
710.51	207.939
710.84	205.970
711.17	204.182
711.50	202.636
711.83	200.788
712.16	199.152
712.48	197.697
712.81	195.879
713.14	193.636
713.47	191.727
713.80	189.667
714.13	187.939
714.45	185.879
714.78	184.212
715.11	182.667
715.44	181.394
715.76	180.364
716.09	178.879
716.42	177.030
716.75	175.485
717.08	174.091
717.40	172.970
717.73	171.606
718.06	170.818
718.38	169.545
718.71	168.061
719.04	166.939
719.37	164.939
719.69	163.515
720.02	162.545
720.35	161.364
720.68	159.667
721.00	158.273
721.33	156.939
721.66	155.242
721.98	153.909
722.31	152.364
722.64	150.727
722.96	149.545
723.29	148.152
723.62	146.788
723.94	145.242
724.27	144.545
724.60	143.545
724.92	142.545
725.25	141.576
725.58	140.394
725.90	139.879
726.23	139.152
726.55	138.212
726.88	136.879
727.21	135.455
727.53	134.818
727.86	133.455
728.18	132.303
728.51	131.000
728.84	129.818
729.16	129.061
729.49	127.697
729.81	126.303
730.14	125.121
730.46	124.515
730.79	124.091
731.12	123.000
731.44	121.939
731.77	121.242
732.09	120.364
732.42	119.545
732.74	118.727
733.07	117.758
733.39	116.909
733.72	116.121
734.04	115.333
734.37	114.182
734.69	113.697
735.02	113.030
735.34	112.030
735.67	111.515
735.99	110.697
736.32	109.697
736.64	109.576
736.97	108.970
737.29	108.394
737.62	107.545
737.94	106.848
738.27	106.121
738.59	105.515
738.91	105.091
739.24	104.576
739.56	104.121
739.89	103.606
740.21	102.606
740.54	102.152
740.86	101.455
741.18	100.636
741.51	100.455
741.83	99.758
742.16	99.333
742.48	98.606
742.80	97.970
743.13	97.576
743.45	97.152
743.77	96.697
744.10	95.970
744.42	95.758
744.75	95.545
745.07	95.061
745.39	94.909
745.72	94.303
746.04	93.879
746.36	93.364
746.69	92.788
747.01	92.333
747.33	91.667
747.66	91.545
747.98	91.030
748.30	90.636
748.62	90.091
748.95	89.485
749.27	89.364
749.59	89.061
749.92	88.394
750.24	87.970
750.56	87.697
750.88	87.576
751.21	87.212
751.53	87.212
751.85	86.818
752.17	86.758
752.50	86.576
752.82	86.364
753.14	85.939
753.46	85.970
753.79	85.818
754.11	85.303
754.43	84.909
754.75	84.485
755.07	84.030
755.40	84.273
755.72	83.939
756.04	83.455
756.36	83.061
756.68	82.848
757.01	82.455
757.33	82.061
757.65	82.182
757.97	81.939
758.29	81.455
758.61	80.606
758.94	79.818
759.26	79.455
759.58	79.485
759.90	78.909
760.22	78.394
760.54	78.182
760.86	77.727
761.18	76.939
761.51	76.879
761.83	76.970
762.15	77.364
762.47	77.212
762.79	76.818
763.11	76.394
763.43	76.424
763.75	76.364
764.07	76.212
764.39	76.000
764.71	76.242
765.03	75.909
765.35	75.576
765.68	75.273
766.00	75.242
766.32	75.152
766.64	75.000
766.96	74.697
767.28	74.455
767.60	74.273
767.92	74.333
768.24	73.939
768.56	74.061
768.88	73.909
769.20	73.636
769.52	73.333
769.84	73.121
770.16	72.727
770.48	72.606
770.80	72.697
771.12	72.788
771.44	72.545
771.76	72.152
772.07	71.636
772.39	71.515
772.71	71.636
773.03	71.636
773.35	71.424
773.67	71.485
773.99	71.303
774.31	70.939
774.63	70.424
774.95	70.485
775.27	70.667
775.59	70.727
775.91	70.424
776.22	70.273
776.54	70.061
776.86	70.273
777.18	70.182
777.50	70.242
777.82	70.424
778.14	70.485
778.46	70.273
778.77	70.303
779.09	69.939
779.41	70.030
779.73	69.697
780.05	69.515
780.37	69.424
780.68	69.515
781.00	69.394
781.32	69.030
781.64	68.848
781.96	68.727
782.28	68.515
782.59	68.576
782.91	68.212
783.23	68.455
