OOIBase32 Version 2.0.2.2 Data File
++++++++++++++++++++++++++++++++++++
Date: Friday, July 12, 2019, 09:25:15
User: Valued Ocean Optics Customer
Spectrometer Serial Number: I2J306
Spectrometer Channel: Master
Integration Time (msec): 100
Spectra Averaged: 3
Boxcar Smoothing: 5
Correct for Electrical Dark: Disabled
Time Normalized: Disabled
Dual-beam Reference: Disabled
Reference Channel: Master
Temperature: Not acquired
Spectrometer Type: S2000
ADC Type: ADC1000
Number of Pixels in File: 2048
Graph Title: 
>>>>>Begin Spectral Data<<<<<
332.72	0.000
333.10	0.000
333.48	52.667
333.86	51.333
334.24	51.000
334.61	52.333
334.99	52.333
335.37	52.667
335.75	50.667
336.13	56.333
336.51	54.333
336.89	57.333
337.26	53.333
337.64	54.000
338.02	54.333
338.40	57.000
338.78	56.000
339.16	55.000
339.53	53.333
339.91	66.333
340.29	60.000
340.67	58.212
341.05	58.424
341.42	58.576
341.80	58.939
342.18	58.485
342.56	58.667
342.94	58.394
343.31	58.242
343.69	58.182
344.07	57.909
344.45	57.758
344.82	58.030
345.20	57.939
345.58	58.030
345.96	58.121
346.33	57.727
346.71	57.182
347.09	57.182
347.46	57.061
347.84	57.182
348.22	57.394
348.60	57.636
348.97	57.515
349.35	57.455
349.73	57.485
350.10	57.424
350.48	57.545
350.86	57.848
351.23	57.788
351.61	57.970
351.99	57.576
352.36	57.515
352.74	57.333
353.12	57.303
353.49	57.242
353.87	57.303
354.25	57.182
354.62	57.273
355.00	57.000
355.37	57.030
355.75	56.818
356.13	57.091
356.50	57.121
356.88	56.939
357.25	56.727
357.63	56.545
358.01	56.364
358.38	56.303
358.76	56.030
359.13	55.939
359.51	55.909
359.88	55.909
360.26	55.758
360.64	55.727
361.01	55.818
361.39	55.697
361.76	56.091
362.14	56.424
362.51	56.667
362.89	56.758
363.26	56.818
363.64	56.970
364.01	57.303
364.39	57.333
364.76	57.152
365.14	57.091
365.51	57.242
365.89	57.242
366.26	57.273
366.64	57.182
367.01	57.182
367.39	57.273
367.76	57.091
368.14	56.818
368.51	56.879
368.88	57.061
369.26	57.000
369.63	56.939
370.01	56.788
370.38	56.455
370.76	56.515
371.13	56.273
371.50	56.152
371.88	56.212
372.25	56.939
372.63	56.970
373.00	56.818
373.37	56.848
373.75	57.152
374.12	57.242
374.50	57.182
374.87	57.394
375.24	57.939
375.62	58.030
375.99	58.030
376.36	57.394
376.74	57.606
377.11	57.697
377.48	57.697
377.86	57.879
378.23	57.909
378.60	58.030
378.98	57.758
379.35	57.576
379.72	57.788
380.10	58.061
380.47	58.273
380.84	58.121
381.22	57.879
381.59	57.909
381.96	57.727
382.33	57.758
382.71	57.758
383.08	57.939
383.45	57.970
383.82	57.970
384.20	57.727
384.57	57.545
384.94	57.606
385.31	58.212
385.69	58.727
386.06	59.121
386.43	58.909
386.80	58.818
387.18	58.667
387.55	58.606
387.92	60.727
388.29	60.909
388.66	60.970
389.04	61.000
389.41	60.909
389.78	60.424
390.15	60.000
390.52	60.152
390.90	60.333
391.27	60.121
391.64	60.030
392.01	57.848
392.38	57.879
392.75	57.909
393.12	57.909
393.50	57.697
393.87	57.697
394.24	57.515
394.61	57.545
394.98	57.545
395.35	57.818
395.72	58.000
396.09	57.879
396.46	57.788
396.84	57.727
397.21	57.394
397.58	57.424
397.95	57.455
398.32	59.727
398.69	60.576
399.06	60.697
399.43	60.667
399.80	60.394
400.17	60.576
400.54	60.576
400.91	60.545
401.28	60.667
401.65	60.879
402.02	60.970
402.39	58.848
402.76	58.091
403.13	58.030
403.50	58.000
403.87	58.152
404.24	58.061
404.61	58.030
404.98	58.424
405.35	58.879
405.72	59.242
406.09	59.303
406.46	59.273
406.83	59.121
407.20	59.212
407.57	59.242
407.94	59.455
408.31	59.606
408.68	59.697
409.05	59.485
409.42	59.455
409.79	58.848
410.16	58.939
410.53	59.030
410.90	59.061
411.26	59.061
411.63	59.242
412.00	59.333
412.37	59.515
412.74	59.636
413.11	59.818
413.48	59.576
413.85	59.636
414.22	59.394
414.58	59.424
414.95	59.818
415.32	60.061
415.69	60.394
416.06	60.424
416.43	60.273
416.80	60.364
417.16	60.242
417.53	60.939
417.90	61.303
418.27	61.909
418.64	62.818
419.00	63.121
419.37	63.364
419.74	63.667
420.11	64.121
420.48	64.818
420.84	65.394
421.21	66.303
421.58	66.485
421.95	67.515
422.32	68.273
422.68	68.818
423.05	69.697
423.42	70.727
423.79	72.061
424.15	73.455
424.52	74.939
424.89	76.182
425.25	77.424
425.62	79.303
425.99	80.758
426.36	82.636
426.72	84.455
427.09	86.455
427.46	88.545
427.82	90.848
428.19	93.455
428.56	96.091
428.93	99.394
429.29	103.091
429.66	106.485
430.03	110.455
430.39	114.394
430.76	118.818
431.13	123.697
431.49	128.879
431.86	133.909
432.22	139.424
432.59	145.212
432.96	151.970
433.32	158.364
433.69	166.182
434.06	174.242
434.42	182.333
434.79	190.818
435.15	199.515
435.52	208.333
435.89	217.909
436.25	227.394
436.62	237.303
436.98	247.394
437.35	258.030
437.71	269.030
438.08	280.273
438.45	292.515
438.81	305.576
439.18	318.545
439.54	332.030
439.91	345.818
440.27	360.697
440.64	376.303
441.00	392.545
441.37	409.515
441.73	426.000
442.10	444.636
442.46	463.333
442.83	484.242
443.19	506.000
443.56	529.364
443.92	553.273
444.29	579.182
444.65	606.333
445.02	636.333
445.38	665.879
445.75	698.121
446.11	731.848
446.48	767.515
446.84	802.333
447.21	839.303
447.57	877.000
447.93	916.151
448.30	956.333
448.66	996.636
449.03	1034.879
449.39	1075.788
449.76	1116.121
450.12	1153.515
450.48	1191.546
450.85	1227.121
451.21	1259.636
451.58	1291.515
451.94	1318.576
452.30	1342.121
452.67	1363.576
453.03	1380.182
453.39	1389.333
453.76	1395.121
454.12	1397.576
454.48	1393.697
454.85	1385.424
455.21	1374.727
455.57	1361.394
455.94	1346.333
456.30	1326.636
456.66	1301.182
457.03	1275.303
457.39	1250.303
457.75	1221.061
458.12	1190.061
458.48	1157.727
458.84	1126.909
459.21	1096.121
459.57	1060.848
459.93	1027.151
460.29	992.970
460.66	962.151
461.02	932.152
461.38	902.333
461.74	872.939
462.11	846.970
462.47	822.030
462.83	798.364
463.19	774.394
463.56	753.364
463.92	731.364
464.28	710.879
464.64	691.182
465.01	672.061
465.37	653.636
465.73	638.424
466.09	622.061
466.45	607.061
466.82	592.273
467.18	577.849
467.54	563.697
467.90	550.515
468.26	538.545
468.62	526.242
468.99	513.303
469.35	502.000
469.71	489.151
470.07	476.303
470.43	464.212
470.79	450.818
471.15	437.485
471.52	424.545
471.88	412.455
472.24	400.364
472.60	388.909
472.96	377.273
473.32	365.485
473.68	354.848
474.04	344.788
474.40	333.788
474.77	324.242
475.13	315.909
475.49	307.091
475.85	298.485
476.21	290.121
476.57	281.788
476.93	274.152
477.29	266.848
477.65	259.303
478.01	251.758
478.37	245.364
478.73	239.273
479.09	232.970
479.45	227.273
479.81	221.758
480.17	216.667
480.53	211.697
480.89	207.424
481.25	203.000
481.61	199.333
481.97	195.939
482.33	192.545
482.69	189.242
483.05	185.879
483.41	182.848
483.77	179.727
484.13	176.970
484.49	174.030
484.85	171.333
485.21	168.970
485.57	166.455
485.93	163.879
486.29	161.364
486.65	158.788
487.01	156.667
487.37	154.667
487.72	152.485
488.08	150.333
488.44	148.182
488.80	145.909
489.16	143.576
489.52	141.424
489.88	139.121
490.24	137.182
490.60	135.121
490.95	132.970
491.31	130.848
491.67	128.727
492.03	126.394
492.39	124.121
492.75	122.121
493.11	120.394
493.46	118.121
493.82	116.485
494.18	114.636
494.54	112.939
494.90	111.636
495.26	109.758
495.61	108.061
495.97	106.909
496.33	105.909
496.69	104.455
497.05	102.788
497.40	101.939
497.76	100.667
498.12	99.606
498.48	98.394
498.84	97.212
499.19	96.424
499.55	95.727
499.91	94.788
500.27	93.879
500.62	93.424
500.98	92.909
501.34	92.364
501.69	91.576
502.05	91.000
502.41	90.485
502.77	89.727
503.12	89.030
503.48	88.727
503.84	88.182
504.19	87.515
504.55	86.667
504.91	86.212
505.27	85.727
505.62	85.424
505.98	85.212
506.34	85.030
506.69	85.000
507.05	84.818
507.41	84.333
507.76	83.939
508.12	84.030
508.47	84.182
508.83	83.727
509.19	83.424
509.54	83.152
509.90	83.091
510.26	82.485
510.61	81.848
510.97	81.758
511.32	81.636
511.68	81.636
512.04	81.394
512.39	81.424
512.75	81.545
513.10	81.333
513.46	81.303
513.82	80.818
514.17	81.091
514.53	81.273
514.88	81.182
515.24	81.152
515.59	81.000
515.95	80.970
516.30	80.636
516.66	80.606
517.01	80.848
517.37	80.818
517.72	80.727
518.08	80.545
518.44	80.424
518.79	80.636
519.15	80.636
519.50	80.485
519.85	80.576
520.21	80.576
520.56	80.455
520.92	80.364
521.27	80.394
521.63	80.242
521.98	80.394
522.34	80.273
522.69	79.818
523.05	79.515
523.40	79.485
523.76	79.455
524.11	79.424
524.46	79.242
524.82	79.030
525.17	78.939
525.53	79.152
525.88	80.909
526.24	81.333
526.59	81.545
526.94	81.939
527.30	82.182
527.65	82.000
528.00	82.424
528.36	82.697
528.71	82.727
529.07	82.939
529.42	83.000
529.77	81.303
530.13	81.030
530.48	81.091
530.83	80.939
531.19	80.788
531.54	80.727
531.89	80.182
532.25	80.121
532.60	80.424
532.95	80.545
533.31	80.727
533.66	80.667
534.01	80.909
534.37	80.848
534.72	80.758
535.07	81.061
535.42	81.000
535.78	81.000
536.13	80.848
536.48	80.515
536.83	80.455
537.19	80.697
537.54	80.636
537.89	80.424
538.24	80.303
538.60	80.697
538.95	80.848
539.30	81.606
539.65	82.182
540.01	82.939
540.36	83.303
540.71	83.455
541.06	83.212
541.41	83.788
541.77	84.242
542.12	84.758
542.47	84.697
542.82	84.394
543.17	84.273
543.53	84.091
543.88	84.000
544.23	84.424
544.58	84.576
544.93	84.970
545.28	84.545
545.63	84.303
545.99	83.879
546.34	83.727
546.69	83.788
547.04	83.303
547.39	83.061
547.74	82.576
548.09	82.121
548.44	82.030
548.80	81.333
549.15	81.364
549.50	81.152
549.85	81.242
550.20	81.091
550.55	81.212
550.90	81.364
551.25	81.636
551.60	81.636
551.95	81.455
552.30	80.818
552.65	80.758
553.00	87.212
553.35	89.242
553.71	88.879
554.06	88.909
554.41	88.212
554.76	87.939
555.11	87.636
555.46	87.485
555.81	87.030
556.16	86.939
556.51	86.636
556.86	79.758
557.21	77.273
557.56	77.303
557.91	77.273
558.26	77.515
558.61	77.606
558.95	77.424
559.30	77.242
559.65	77.364
560.00	77.273
560.35	77.545
560.70	77.394
561.05	77.424
561.40	77.030
561.75	77.212
562.10	77.212
562.45	77.273
562.80	77.364
563.15	77.212
563.50	77.000
563.84	77.212
564.19	77.091
564.54	77.121
564.89	77.212
565.24	77.576
565.59	77.636
565.94	77.788
566.29	77.606
566.64	77.273
566.98	77.242
567.33	77.545
567.68	77.303
568.03	77.152
568.38	77.333
568.73	77.242
569.07	77.000
569.42	76.576
569.77	76.424
570.12	76.333
570.47	76.697
570.81	77.030
571.16	76.818
571.51	77.091
571.86	77.515
572.21	77.545
572.55	77.667
572.90	78.000
573.25	78.182
573.60	78.000
573.95	77.848
574.29	77.545
574.64	77.273
574.99	78.000
575.34	77.939
575.68	77.667
576.03	77.576
576.38	77.242
576.72	77.152
577.07	77.061
577.42	77.091
577.77	77.121
578.11	77.242
578.46	77.576
578.81	76.909
579.15	76.818
579.50	76.848
579.85	76.879
580.19	77.515
580.54	77.545
580.89	78.030
581.23	78.212
581.58	78.273
581.93	78.606
582.27	78.515
582.62	78.545
582.97	78.697
583.31	78.636
583.66	78.727
584.01	78.455
584.35	78.727
584.70	78.212
585.04	78.182
585.39	78.394
585.74	77.970
586.08	77.636
586.43	77.727
586.77	77.818
587.12	77.667
587.47	77.636
587.81	77.455
588.16	76.818
588.50	76.636
588.85	76.303
589.19	76.182
589.54	76.424
589.88	76.485
590.23	76.303
590.58	75.909
590.92	75.636
591.27	75.515
591.61	75.667
591.96	75.727
592.30	75.727
592.65	75.758
592.99	75.576
593.34	75.061
593.68	74.970
594.03	74.727
594.37	74.727
594.72	74.909
595.06	74.576
595.41	74.152
595.75	74.061
596.09	73.879
596.44	73.848
596.78	73.818
597.13	73.848
597.47	73.727
597.82	73.909
598.16	73.727
598.51	73.455
598.85	73.606
599.19	73.515
599.54	73.273
599.88	73.273
600.23	73.303
600.57	73.212
600.91	73.455
601.26	73.545
601.60	73.455
601.95	73.455
602.29	73.545
602.63	73.424
602.98	73.455
603.32	73.576
603.66	73.424
604.01	73.000
604.35	72.970
604.69	72.667
605.04	72.485
605.38	72.182
605.72	72.061
606.07	71.667
606.41	71.606
606.75	71.424
607.10	71.212
607.44	71.000
607.78	71.212
608.13	71.152
608.47	71.242
608.81	71.394
609.15	72.030
609.50	72.515
609.84	73.212
610.18	73.576
610.52	73.939
610.87	74.273
611.21	74.545
611.55	74.697
611.89	74.394
612.24	74.273
612.58	73.970
612.92	73.485
613.26	73.061
613.61	72.576
613.95	72.030
614.29	71.606
614.63	71.242
614.97	70.909
615.32	70.424
615.66	70.576
616.00	70.576
616.34	70.576
616.68	70.485
617.02	70.182
617.37	69.939
617.71	69.758
618.05	69.697
618.39	69.424
618.73	69.333
619.07	69.485
619.42	69.606
619.76	69.303
620.10	69.152
620.44	68.848
620.78	68.879
621.12	69.182
621.46	69.212
621.80	69.364
622.14	69.515
622.49	69.455
622.83	68.970
623.17	68.424
623.51	68.303
623.85	68.333
624.19	68.333
624.53	68.061
624.87	67.545
625.21	67.485
625.55	67.152
625.89	66.879
626.23	66.727
626.57	66.939
626.91	66.879
627.25	67.091
627.59	66.879
627.93	66.758
628.27	66.667
628.61	66.818
628.95	66.576
629.29	66.667
629.63	66.909
629.97	66.909
630.31	67.273
630.65	67.333
630.99	66.818
631.33	66.818
631.67	66.636
632.01	66.879
632.35	66.697
632.69	66.485
633.03	66.333
633.37	66.091
633.71	65.939
634.05	65.455
634.39	65.333
634.73	65.667
635.07	65.788
635.41	65.818
635.75	65.545
636.09	65.303
636.42	65.182
636.76	65.121
637.10	65.000
637.44	64.970
637.78	64.758
638.12	64.788
638.46	64.394
638.80	64.182
639.13	64.091
639.47	64.212
639.81	64.394
640.15	64.636
640.49	64.606
640.83	64.667
641.17	64.667
641.50	64.697
641.84	64.394
642.18	64.424
642.52	64.212
642.86	64.152
643.19	63.758
643.53	63.545
643.87	63.606
644.21	63.424
644.55	63.333
644.88	63.212
645.22	63.212
645.56	63.333
645.90	63.212
646.23	63.030
646.57	63.091
646.91	63.182
647.25	63.121
647.59	62.758
647.92	62.455
648.26	62.000
648.60	61.909
648.93	61.788
649.27	61.515
649.61	61.788
649.95	62.000
650.28	61.909
650.62	61.909
650.96	62.061
651.29	62.030
651.63	62.455
651.97	62.879
652.30	62.939
652.64	63.242
652.98	63.242
653.31	63.364
653.65	63.333
653.99	63.212
654.32	63.030
654.66	62.788
655.00	62.879
655.33	62.424
655.67	62.061
656.01	61.879
656.34	61.758
656.68	61.758
657.01	61.242
657.35	61.152
657.69	61.121
658.02	61.303
658.36	61.364
658.69	61.000
659.03	61.636
659.37	61.727
659.70	61.970
660.04	61.667
660.37	61.636
660.71	61.758
661.04	61.606
661.38	61.333
661.72	61.152
662.05	61.121
662.39	61.273
662.72	60.636
663.06	60.364
663.39	60.030
663.73	59.697
664.06	59.667
664.40	59.606
664.73	59.515
665.07	59.485
665.40	59.424
665.74	59.364
666.07	59.455
666.41	59.424
666.74	59.545
667.08	59.394
667.41	59.697
667.75	59.636
668.08	59.515
668.41	59.667
668.75	59.727
669.08	59.545
669.42	59.424
669.75	59.061
670.09	59.000
670.42	59.212
670.76	59.273
671.09	58.939
671.42	58.848
671.76	58.727
672.09	58.667
672.43	58.697
672.76	58.818
673.09	58.667
673.43	58.788
673.76	58.758
674.09	58.424
674.43	58.485
674.76	58.909
675.10	58.939
675.43	59.091
675.76	59.303
676.10	59.273
676.43	59.394
676.76	59.545
677.10	59.848
677.43	60.515
677.76	60.788
678.10	60.606
678.43	60.364
678.76	60.485
679.09	60.576
679.43	60.030
679.76	60.091
680.09	59.939
680.43	59.667
680.76	59.273
681.09	58.606
681.42	58.879
681.76	58.788
682.09	58.758
682.42	59.030
682.75	58.939
683.09	58.970
683.42	58.939
683.75	59.182
684.08	59.212
684.42	59.333
684.75	59.273
685.08	58.727
685.41	58.818
685.74	58.788
686.08	58.152
686.41	58.152
686.74	58.091
687.07	57.939
687.40	57.788
687.74	58.061
688.07	57.939
688.40	57.970
688.73	57.970
689.06	57.818
689.39	57.697
689.73	57.727
690.06	57.394
690.39	57.394
690.72	57.424
691.05	57.152
691.38	57.091
691.71	57.121
692.04	57.303
692.38	57.303
692.71	57.848
693.04	58.303
693.37	58.394
693.70	58.515
694.03	58.485
694.36	58.394
694.69	58.333
695.02	58.333
695.35	58.455
695.68	58.303
696.02	58.212
696.35	57.848
696.68	57.364
697.01	57.152
697.34	57.121
697.67	57.242
698.00	57.333
698.33	57.606
698.66	57.394
698.99	57.152
699.32	57.424
699.65	57.697
699.98	57.667
700.31	57.758
700.64	57.758
700.97	57.818
701.30	57.818
701.63	57.848
701.96	57.788
702.29	57.909
702.62	57.970
702.95	57.667
703.28	57.485
703.61	57.727
703.94	57.667
704.26	58.000
704.59	58.152
704.92	58.091
705.25	58.091
705.58	58.091
705.91	58.182
706.24	58.333
706.57	58.515
706.90	58.667
707.23	58.606
707.56	58.848
707.89	59.000
708.21	58.606
708.54	58.636
708.87	58.485
709.20	58.424
709.53	58.455
709.86	58.636
710.19	58.545
710.51	58.303
710.84	58.242
711.17	58.000
711.50	57.818
711.83	57.970
712.16	58.061
712.48	58.212
712.81	58.061
713.14	57.727
713.47	57.545
713.80	57.303
714.13	57.364
714.45	57.091
714.78	56.970
715.11	56.818
715.44	56.667
715.76	56.606
716.09	56.606
716.42	56.636
716.75	56.788
717.08	56.818
717.40	57.000
717.73	56.970
718.06	57.303
718.38	57.545
718.71	57.515
719.04	57.485
719.37	57.515
719.69	57.303
720.02	57.333
720.35	57.273
720.68	57.061
721.00	56.727
721.33	56.667
721.66	56.394
721.98	56.364
722.31	56.424
722.64	56.424
722.96	56.333
723.29	56.394
723.62	56.515
723.94	56.667
724.27	56.727
724.60	57.061
724.92	57.121
725.25	57.242
725.58	57.242
725.90	57.242
726.23	57.303
726.55	57.545
726.88	57.697
727.21	57.545
727.53	57.485
727.86	57.485
728.18	57.424
728.51	57.545
728.84	57.394
729.16	57.455
729.49	57.273
729.81	57.273
730.14	56.758
730.46	56.727
730.79	57.000
731.12	56.758
731.44	56.727
731.77	57.182
732.09	57.061
732.42	56.939
732.74	56.727
733.07	57.000
733.39	57.030
733.72	57.333
734.04	57.091
734.37	56.606
734.69	56.848
735.02	56.970
735.34	56.697
735.67	56.758
735.99	56.970
736.32	57.152
736.64	57.545
736.97	57.394
737.29	57.515
737.62	57.848
737.94	58.000
738.27	57.939
738.59	57.788
738.91	57.697
739.24	57.758
739.56	57.848
739.89	57.697
740.21	57.121
740.54	57.636
740.86	57.545
741.18	57.333
741.51	57.485
741.83	57.636
742.16	57.788
742.48	57.758
742.80	57.667
743.13	57.788
743.45	57.848
743.77	57.970
744.10	57.697
744.42	57.485
744.75	57.545
745.07	57.727
745.39	57.485
745.72	57.212
746.04	57.000
746.36	57.030
746.69	56.879
747.01	56.939
747.33	56.636
747.66	56.545
747.98	56.727
748.30	56.939
748.62	56.970
748.95	57.000
749.27	57.273
749.59	57.333
749.92	57.364
750.24	57.152
750.56	57.061
750.88	57.606
751.21	57.758
751.53	57.909
751.85	57.242
752.17	56.879
752.50	56.818
752.82	56.758
753.14	56.788
753.46	56.758
753.79	56.727
754.11	56.606
754.43	56.303
754.75	56.091
755.07	55.848
755.40	56.576
755.72	57.152
756.04	57.273
756.36	57.061
756.68	57.030
757.01	57.000
757.33	57.212
757.65	57.424
757.97	57.576
758.29	57.667
758.61	57.788
758.94	57.485
759.26	56.939
759.58	56.939
759.90	56.818
760.22	56.636
760.54	56.697
760.86	56.606
761.18	56.636
761.51	56.576
761.83	56.576
762.15	56.697
762.47	56.727
762.79	56.788
763.11	56.606
763.43	56.788
763.75	57.091
764.07	57.061
764.39	56.909
764.71	56.788
765.03	56.606
765.35	56.818
765.68	56.848
766.00	57.000
766.32	57.000
766.64	57.242
766.96	57.515
767.28	57.273
767.60	57.182
767.92	57.455
768.24	57.515
768.56	57.697
768.88	57.545
769.20	57.545
769.52	57.121
769.84	57.121
770.16	57.061
770.48	56.818
770.80	56.909
771.12	57.212
771.44	57.152
771.76	57.091
772.07	57.030
772.39	56.909
772.71	56.727
773.03	57.333
773.35	57.212
773.67	57.000
773.99	56.848
774.31	56.970
774.63	56.697
774.95	56.758
775.27	56.697
775.59	56.667
775.91	56.667
776.22	56.788
776.54	56.212
776.86	56.515
777.18	56.667
777.50	57.030
777.82	56.939
778.14	57.212
778.46	57.152
778.77	57.515
779.09	57.848
779.41	57.848
779.73	57.758
780.05	58.061
780.37	57.909
780.68	58.212
781.00	58.121
781.32	58.303
781.64	57.788
781.96	57.818
782.28	57.485
782.59	56.970
782.91	56.939
783.23	56.788
783.55	56.818
783.86	56.879
784.18	56.636
784.50	56.424
784.82	56.303
785.14	56.485
785.45	56.273
785.77	56.364
786.09	56.879
786.40	57.152
786.72	57.121
787.04	56.939
787.36	56.667
787.67	56.636
787.99	56.848
788.31	57.273
788.63	57.303
788.94	57.485
789.26	57.455
789.58	57.242
789.89	57.030
790.21	57.364
790.53	57.394
790.84	57.576
791.16	57.788
791.48	57.667
791.79	57.212
792.11	57.455
792.43	57.485
792.74	57.606
793.06	57.576
793.38	57.667
793.69	57.303
794.01	57.333
794.32	57.152
794.64	56.879
794.96	56.879
795.27	57.182
795.59	57.030
795.91	56.697
796.22	56.576
796.54	56.455
796.85	56.485
797.17	56.667
797.48	56.636
797.80	56.879
798.12	57.030
798.43	57.091
798.75	56.758
799.06	56.697
799.38	57.030
799.69	57.152
800.01	57.273
800.32	57.364
800.64	57.455
800.95	57.364
801.27	57.485
801.58	57.424
801.90	57.424
802.21	57.364
802.53	57.273
802.84	57.242
803.16	57.242
803.47	57.394
803.79	57.000
804.10	56.606
804.42	56.515
804.73	56.485
805.05	56.424
805.36	56.455
805.68	56.636
805.99	56.455
806.31	56.333
806.62	56.061
806.93	55.485
807.25	55.545
807.56	55.848
807.88	56.455
808.19	56.364
808.51	57.000
