OOIBase32 Version 2.0.2.2 Data File
++++++++++++++++++++++++++++++++++++
Date: Monday, July 22, 2019, 10:07:08
User: Valued Ocean Optics Customer
Spectrometer Serial Number: I2J306
Spectrometer Channel: Master
Integration Time (msec): 100
Spectra Averaged: 3
Boxcar Smoothing: 5
Correct for Electrical Dark: Disabled
Time Normalized: Disabled
Dual-beam Reference: Disabled
Reference Channel: Master
Temperature: Not acquired
Spectrometer Type: S2000
ADC Type: ADC1000
Number of Pixels in File: 2048
Graph Title: 
>>>>>Begin Spectral Data<<<<<
332.72
333.10
333.48	41.000
333.86	42.333
334.24	42.333
334.61	44.333
334.99	44.333
335.37	44.333
335.75	45.000
336.13	47.333
336.51	46.333
336.89	45.333
337.26	44.667
337.64	44.000
338.02	45.333
338.40	47.333
338.78	46.667
339.16	46.000
339.53	51.000
339.91	62.000
340.29	51.000
340.67	50.333
341.05	50.606
341.42	51.000
341.80	50.818
342.18	50.182
342.56	50.758
342.94	50.848
343.31	51.030
343.69	51.030
344.07	51.333
344.45	51.152
344.82	51.061
345.20	51.000
345.58	50.909
345.96	50.909
346.33	50.455
346.71	49.879
347.09	49.576
347.46	49.455
347.84	49.515
348.22	49.455
348.60	49.333
348.97	49.697
349.35	49.667
349.73	49.576
350.10	49.818
350.48	49.848
350.86	50.030
351.23	50.152
351.61	50.212
351.99	50.364
352.36	50.576
352.74	50.970
353.12	50.545
353.49	50.364
353.87	50.242
354.25	50.273
354.62	50.333
355.00	49.970
355.37	50.182
355.75	50.182
356.13	50.152
356.50	49.576
356.88	49.485
357.25	49.333
357.63	49.697
358.01	49.909
358.38	49.515
358.76	49.636
359.13	49.606
359.51	49.364
359.88	48.939
360.26	48.697
360.64	48.879
361.01	48.939
361.39	49.091
361.76	49.030
362.14	49.303
362.51	49.667
362.89	49.424
363.26	49.364
363.64	49.364
364.01	49.788
364.39	49.909
364.76	50.152
365.14	49.818
365.51	49.939
365.89	49.879
366.26	49.758
366.64	49.545
367.01	49.273
367.39	49.636
367.76	49.606
368.14	49.485
368.51	49.394
368.88	49.273
369.26	49.515
369.63	49.364
370.01	49.545
370.38	49.485
370.76	49.727
371.13	49.848
371.50	49.667
371.88	49.606
372.25	50.000
372.63	50.455
373.00	50.545
373.37	50.606
373.75	50.939
374.12	50.909
374.50	51.000
374.87	50.788
375.24	51.061
375.62	51.212
375.99	51.545
376.36	51.333
376.74	51.182
377.11	51.242
377.48	51.273
377.86	51.182
378.23	51.152
378.60	50.909
378.98	50.848
379.35	50.788
379.72	50.758
380.10	50.727
380.47	50.818
380.84	50.970
381.22	51.091
381.59	51.091
381.96	51.303
382.33	51.394
382.71	51.848
383.08	52.758
383.45	53.061
383.82	53.364
384.20	53.788
384.57	53.667
384.94	53.788
385.31	54.515
385.69	55.152
386.06	55.818
386.43	56.030
386.80	56.182
387.18	55.939
387.55	56.000
387.92	58.576
388.29	58.818
388.66	59.394
389.04	59.667
389.41	59.697
389.78	59.848
390.15	59.879
390.52	60.576
390.90	61.152
391.27	61.697
391.64	62.606
392.01	61.121
392.38	62.000
392.75	62.939
393.12	63.788
393.50	64.455
393.87	65.606
394.24	66.818
394.61	68.000
394.98	69.364
395.35	71.061
395.72	72.424
396.09	73.848
396.46	75.576
396.84	77.424
397.21	79.970
397.58	82.485
397.95	85.212
398.32	89.212
398.69	92.939
399.06	96.030
399.43	99.212
399.80	103.182
400.17	107.030
400.54	111.273
400.91	115.606
401.28	120.242
401.65	125.636
402.02	131.091
402.39	135.667
402.76	140.818
403.13	146.818
403.50	152.848
403.87	159.394
404.24	166.303
404.61	173.121
404.98	181.030
405.35	188.515
405.72	196.091
406.09	203.121
406.46	209.727
406.83	216.879
407.20	224.879
407.57	232.485
407.94	239.485
408.31	246.545
408.68	253.667
409.05	259.758
409.42	266.333
409.79	271.879
410.16	278.303
410.53	284.727
410.90	290.303
411.26	295.121
411.63	300.182
412.00	304.879
412.37	309.576
412.74	313.788
413.11	317.242
413.48	320.545
413.85	324.121
414.22	327.636
414.58	330.273
414.95	333.455
415.32	336.727
415.69	339.939
416.06	343.727
416.43	346.606
416.80	349.485
417.16	352.727
417.53	355.970
417.90	360.030
418.27	363.455
418.64	368.606
419.00	374.091
419.37	379.030
419.74	385.091
420.11	391.152
420.48	397.879
420.84	405.576
421.21	414.303
421.58	423.970
421.95	434.091
422.32	445.303
422.68	456.939
423.05	469.727
423.42	484.667
423.79	498.818
424.15	515.061
424.52	532.879
424.89	552.667
425.25	572.151
425.62	593.727
425.99	615.849
426.36	638.000
426.72	662.333
427.09	688.151
427.46	715.242
427.82	743.818
428.19	774.515
428.56	804.758
428.93	835.788
429.29	870.909
429.66	904.818
430.03	941.909
430.39	981.606
430.76	1021.394
431.13	1061.576
431.49	1102.515
431.86	1144.879
432.22	1187.182
432.59	1231.970
432.96	1278.788
433.32	1323.455
433.69	1373.818
434.06	1420.727
434.42	1468.636
434.79	1516.242
435.15	1563.363
435.52	1607.818
435.89	1656.364
436.25	1703.121
436.62	1751.243
436.98	1799.243
437.35	1845.939
437.71	1891.091
438.08	1937.394
438.45	1982.727
438.81	2028.758
439.18	2073.333
439.54	2119.424
439.91	2161.273
440.27	2202.000
440.64	2239.182
441.00	2274.394
441.37	2308.879
441.73	2339.515
442.10	2370.939
442.46	2398.667
442.83	2427.788
443.19	2455.545
443.56	2482.394
443.92	2502.848
444.29	2525.242
444.65	2544.970
445.02	2564.546
445.38	2576.000
445.75	2587.061
446.11	2597.818
446.48	2607.788
446.84	2609.667
447.21	2611.545
447.57	2610.455
447.93	2611.545
448.30	2607.273
448.66	2598.818
449.03	2585.303
449.39	2577.061
449.76	2566.303
450.12	2548.909
450.48	2530.849
450.85	2510.273
451.21	2483.485
451.58	2458.939
451.94	2428.152
452.30	2397.303
452.67	2370.455
453.03	2339.030
453.39	2302.879
453.76	2264.151
454.12	2224.151
454.48	2181.394
454.85	2138.424
455.21	2098.121
455.57	2057.091
455.94	2018.121
456.30	1975.909
456.66	1929.151
457.03	1884.485
457.39	1843.515
457.75	1800.667
458.12	1758.515
458.48	1717.909
458.84	1681.303
459.21	1643.667
459.57	1600.333
459.93	1560.606
460.29	1521.061
460.66	1484.667
461.02	1451.242
461.38	1416.939
461.74	1383.303
462.11	1352.939
462.47	1320.091
462.83	1286.727
463.19	1255.667
463.56	1227.788
463.92	1196.970
464.28	1168.424
464.64	1139.606
465.01	1109.909
465.37	1082.303
465.73	1057.545
466.09	1030.636
466.45	1005.455
466.82	980.333
467.18	954.939
467.54	929.364
467.90	906.909
468.26	884.030
468.62	862.515
468.99	840.606
469.35	820.030
469.71	798.667
470.07	779.061
470.43	761.212
470.79	743.455
471.15	726.061
471.52	708.818
471.88	691.727
472.24	677.667
472.60	663.515
472.96	649.939
473.32	636.303
473.68	623.303
474.04	610.545
474.40	598.788
474.77	587.030
475.13	576.758
475.49	566.727
475.85	557.939
476.21	548.727
476.57	539.485
476.93	530.697
477.29	523.394
477.65	516.212
478.01	509.545
478.37	503.364
478.73	498.667
479.09	493.758
479.45	490.242
479.81	486.758
480.17	483.394
480.53	481.121
480.89	479.000
481.25	476.848
481.61	475.455
481.97	474.212
482.33	473.333
482.69	472.515
483.05	472.151
483.41	472.545
483.77	472.970
484.13	473.849
484.49	474.818
484.85	477.212
485.21	479.182
485.57	482.242
485.93	485.788
486.29	489.576
486.65	494.273
487.01	499.636
487.37	504.667
487.72	511.303
488.08	516.909
488.44	523.515
488.80	530.364
489.16	538.576
489.52	547.061
489.88	555.758
490.24	565.030
490.60	574.515
490.95	584.879
491.31	596.242
491.67	607.182
492.03	619.182
492.39	631.424
492.75	645.152
493.11	658.939
493.46	673.121
493.82	687.879
494.18	703.364
494.54	719.576
494.90	736.273
495.26	753.788
495.61	771.030
495.97	789.515
496.33	808.485
496.69	827.455
497.05	847.242
497.40	867.424
497.76	888.030
498.12	909.152
498.48	931.121
498.84	952.545
499.19	975.606
499.55	998.515
499.91	1022.121
500.27	1045.788
500.62	1069.242
500.98	1093.121
501.34	1118.030
501.69	1142.212
502.05	1166.333
502.41	1189.182
502.77	1213.788
503.12	1237.788
503.48	1262.424
503.84	1287.667
504.19	1312.485
504.55	1338.212
504.91	1364.030
505.27	1388.818
505.62	1414.091
505.98	1441.121
506.34	1469.485
506.69	1496.727
507.05	1522.545
507.41	1548.909
507.76	1573.515
508.12	1599.424
508.47	1624.818
508.83	1648.364
509.19	1673.333
509.54	1698.424
509.90	1722.424
510.26	1745.212
510.61	1768.818
510.97	1793.030
511.32	1817.606
511.68	1843.091
512.04	1868.909
512.39	1893.152
512.75	1919.364
513.10	1944.515
513.46	1970.091
513.82	1994.424
514.17	2019.394
514.53	2044.454
514.88	2069.061
515.24	2092.364
515.59	2117.273
515.95	2142.273
516.30	2167.273
516.66	2189.394
517.01	2212.273
517.37	2235.939
517.72	2258.242
518.08	2280.818
518.44	2302.485
518.79	2321.788
519.15	2344.364
519.50	2364.818
519.85	2383.515
520.21	2403.333
520.56	2425.970
520.92	2447.424
521.27	2466.818
521.63	2487.091
521.98	2507.182
522.34	2525.697
522.69	2546.606
523.05	2563.606
523.40	2581.758
523.76	2601.545
524.11	2618.697
524.46	2636.182
524.82	2652.182
525.17	2668.030
525.53	2683.364
525.88	2702.152
526.24	2718.818
526.59	2734.030
526.94	2749.272
527.30	2764.000
527.65	2778.242
528.00	2794.212
528.36	2807.879
528.71	2821.939
529.07	2836.849
529.42	2850.515
529.77	2861.515
530.13	2874.546
530.48	2887.273
530.83	2901.000
531.19	2912.152
531.54	2923.849
531.89	2935.606
532.25	2948.182
532.60	2960.273
532.95	2970.788
533.31	2983.303
533.66	2993.242
534.01	3005.242
534.37	3017.394
534.72	3026.727
535.07	3037.697
535.42	3048.242
535.78	3057.303
536.13	3065.455
536.48	3074.364
536.83	3083.667
537.19	3090.242
537.54	3098.606
537.89	3105.394
538.24	3111.212
538.60	3117.879
538.95	3123.909
539.30	3127.030
539.65	3132.545
540.01	3135.636
540.36	3137.212
540.71	3138.940
541.06	3141.606
541.41	3141.818
541.77	3141.212
542.12	3138.636
542.47	3137.031
542.82	3135.667
543.17	3134.455
543.53	3131.182
543.88	3129.364
544.23	3128.424
544.58	3126.515
544.93	3123.606
545.28	3119.424
545.63	3114.273
545.99	3110.848
546.34	3105.697
546.69	3097.788
547.04	3091.545
547.39	3082.606
547.74	3074.636
548.09	3065.091
548.44	3055.273
548.80	3045.364
549.15	3037.091
549.50	3028.303
549.85	3021.727
550.20	3012.212
550.55	3003.697
550.90	2992.212
551.25	2983.424
551.60	2973.727
551.95	2963.788
552.30	2954.849
552.65	2946.758
553.00	2943.788
553.35	2937.727
553.71	2927.242
554.06	2919.424
554.41	2911.000
554.76	2905.212
555.11	2898.606
555.46	2890.788
555.81	2881.849
556.16	2874.455
556.51	2864.091
556.86	2849.454
557.21	2838.485
557.56	2828.879
557.91	2820.424
558.26	2811.879
558.61	2802.758
558.95	2793.424
559.30	2785.121
559.65	2778.030
560.00	2770.636
560.35	2765.849
560.70	2758.818
561.05	2753.364
561.40	2747.576
561.75	2741.970
562.10	2737.939
562.45	2733.697
562.80	2727.030
563.15	2720.788
563.50	2715.000
563.84	2708.697
564.19	2701.515
564.54	2696.333
564.89	2687.909
565.24	2681.970
565.59	2676.212
565.94	2669.849
566.29	2662.212
566.64	2656.545
566.98	2651.545
567.33	2647.970
567.68	2640.394
568.03	2636.212
568.38	2631.212
568.73	2626.576
569.07	2620.879
569.42	2614.697
569.77	2608.697
570.12	2603.333
570.47	2599.576
570.81	2593.515
571.16	2587.909
571.51	2583.818
571.86	2575.485
572.21	2569.333
572.55	2565.879
572.90	2561.909
573.25	2556.939
573.60	2551.788
573.95	2546.121
574.29	2541.758
574.64	2538.727
574.99	2533.485
575.34	2529.242
575.68	2526.909
576.03	2522.848
576.38	2517.424
576.72	2513.000
577.07	2508.515
577.42	2504.394
577.77	2501.455
578.11	2495.788
578.46	2490.242
578.81	2486.151
579.15	2480.394
579.50	2474.242
579.85	2469.909
580.19	2464.030
580.54	2458.031
580.89	2453.818
581.23	2449.242
581.58	2443.424
581.93	2438.606
582.27	2433.909
582.62	2427.242
582.97	2422.515
583.31	2418.091
583.66	2411.788
584.01	2406.727
584.35	2403.242
584.70	2397.061
585.04	2389.485
585.39	2384.333
585.74	2376.969
586.08	2370.697
586.43	2364.061
586.77	2355.061
587.12	2345.333
587.47	2336.909
587.81	2328.061
588.16	2315.424
588.50	2306.000
588.85	2296.939
589.19	2284.788
589.54	2276.121
589.88	2263.545
590.23	2252.364
590.58	2243.000
590.92	2233.909
591.27	2222.485
591.61	2211.758
591.96	2201.606
592.30	2189.970
592.65	2179.424
592.99	2168.909
593.34	2156.333
593.68	2145.424
594.03	2132.818
594.37	2119.212
594.72	2106.818
595.06	2093.909
595.41	2079.849
595.75	2066.000
596.09	2052.000
596.44	2037.697
596.78	2023.970
597.13	2009.818
597.47	1996.030
597.82	1985.182
598.16	1972.727
598.51	1959.939
598.85	1948.424
599.19	1936.333
599.54	1924.364
599.88	1911.424
600.23	1897.636
600.57	1884.515
600.91	1872.303
601.26	1860.364
601.60	1845.818
601.95	1833.939
602.29	1820.333
602.63	1805.970
602.98	1793.576
603.32	1781.879
603.66	1771.273
604.01	1760.727
604.35	1750.849
604.69	1737.849
605.04	1724.909
605.38	1713.212
605.72	1701.182
606.07	1690.091
606.41	1677.849
606.75	1665.182
607.10	1652.636
607.44	1640.424
607.78	1628.515
608.13	1615.061
608.47	1603.849
608.81	1592.000
609.15	1580.303
609.50	1568.030
609.84	1556.636
610.18	1546.030
610.52	1534.303
610.87	1521.333
611.21	1510.000
611.55	1497.879
611.89	1486.121
612.24	1475.606
612.58	1464.697
612.92	1452.121
613.26	1440.970
613.61	1430.303
613.95	1419.606
614.29	1408.849
614.63	1400.939
614.97	1390.242
615.32	1381.515
615.66	1372.303
616.00	1362.364
616.34	1352.818
616.68	1345.091
617.02	1335.364
617.37	1324.576
617.71	1315.667
618.05	1306.333
618.39	1295.849
618.73	1285.667
619.07	1275.545
619.42	1266.667
619.76	1256.849
620.10	1247.091
620.44	1237.788
620.78	1229.879
621.12	1221.485
621.46	1211.273
621.80	1201.788
622.14	1193.576
622.49	1184.970
622.83	1176.091
623.17	1166.273
623.51	1158.000
623.85	1150.455
624.19	1141.788
624.53	1133.515
624.87	1125.788
625.21	1118.454
625.55	1111.909
625.89	1103.242
626.23	1095.545
626.57	1088.333
626.91	1080.970
627.25	1073.424
627.59	1065.424
627.93	1057.970
628.27	1049.909
628.61	1041.939
628.95	1033.364
629.29	1025.061
629.63	1018.061
629.97	1010.394
630.31	1001.879
630.65	994.394
630.99	986.515
631.33	978.515
631.67	970.788
632.01	963.818
632.35	957.061
632.69	950.485
633.03	944.485
633.37	937.606
633.71	931.152
634.05	924.667
634.39	916.849
634.73	910.576
635.07	904.394
635.41	897.818
635.75	890.909
636.09	883.758
636.42	877.485
636.76	870.091
637.10	863.394
637.44	855.394
637.78	849.030
638.12	843.030
638.46	836.091
638.80	829.273
639.13	822.697
639.47	816.121
639.81	809.939
640.15	802.909
640.49	796.121
640.83	789.364
641.17	784.667
641.50	777.788
641.84	771.727
642.18	766.121
642.52	760.667
642.86	753.818
643.19	747.758
643.53	741.485
643.87	735.909
644.21	730.818
644.55	724.697
644.88	718.030
645.22	712.545
645.56	706.909
645.90	700.242
646.23	693.424
646.57	687.909
646.91	681.364
647.25	675.152
647.59	669.061
647.92	662.576
648.26	657.515
648.60	652.212
648.93	646.121
649.27	640.818
649.61	635.455
649.95	629.394
650.28	623.879
650.62	618.091
650.96	611.485
651.29	605.061
651.63	598.818
651.97	592.242
652.30	586.273
652.64	580.485
652.98	574.242
653.31	568.485
653.65	564.152
653.99	558.545
654.32	553.849
654.66	549.303
655.00	544.758
655.33	540.273
655.67	535.545
656.01	530.182
656.34	525.485
656.68	520.061
657.01	514.758
657.35	508.788
657.69	502.818
658.02	497.545
658.36	492.697
658.69	487.576
659.03	483.454
659.37	478.394
659.70	473.788
660.04	468.121
660.37	463.879
660.71	458.606
661.04	454.515
661.38	450.667
661.72	446.182
662.05	441.849
662.39	437.273
662.72	431.576
663.06	426.849
663.39	421.758
663.73	417.758
664.06	413.394
664.40	410.000
664.73	404.879
665.07	400.455
665.40	395.849
665.74	391.121
666.07	387.273
666.41	383.364
666.74	379.091
667.08	375.030
667.41	370.758
667.75	366.303
668.08	362.515
668.41	359.576
668.75	356.485
669.08	352.849
669.42	349.455
669.75	345.788
670.09	342.424
670.42	339.818
670.76	337.121
671.09	333.758
671.42	330.606
671.76	326.849
672.09	323.151
672.43	319.455
672.76	316.879
673.09	314.485
673.43	311.303
673.76	308.758
674.09	305.667
674.43	302.849
674.76	300.788
675.10	297.758
675.43	294.970
675.76	292.273
676.10	289.909
676.43	286.455
676.76	283.303
677.10	280.636
677.43	278.242
677.76	275.545
678.10	273.000
678.43	269.879
678.76	267.788
679.09	265.758
679.43	263.182
679.76	260.909
680.09	259.182
680.43	256.727
680.76	254.788
681.09	252.121
681.42	250.303
681.76	247.939
682.09	246.121
682.42	244.152
682.75	242.030
683.09	239.848
683.42	237.667
683.75	235.667
684.08	233.515
684.42	231.424
684.75	229.030
685.08	226.758
685.41	224.879
685.74	222.848
686.08	220.879
686.41	218.818
686.74	217.424
687.07	215.364
687.40	213.303
687.74	211.394
688.07	209.394
688.40	207.818
688.73	206.273
689.06	204.758
689.39	203.061
689.73	201.667
690.06	200.091
690.39	198.485
690.72	197.000
691.05	195.667
691.38	194.424
691.71	192.848
692.04	191.394
692.38	189.697
692.71	188.636
693.04	187.515
693.37	186.030
693.70	184.424
694.03	182.818
694.36	181.667
694.69	180.636
695.02	179.091
695.35	177.758
695.68	175.758
696.02	174.333
696.35	172.455
696.68	170.848
697.01	169.485
697.34	168.394
697.67	167.030
698.00	165.606
698.33	163.848
698.66	162.606
698.99	161.697
699.32	161.212
699.65	160.182
699.98	159.061
700.31	157.727
700.64	156.333
700.97	155.394
701.30	154.364
701.63	153.061
701.96	152.273
702.29	151.545
702.62	150.242
702.95	149.455
703.28	148.242
703.61	147.394
703.94	146.909
704.26	146.091
704.59	145.212
704.92	144.636
705.25	143.909
705.58	142.939
705.91	142.121
706.24	141.121
706.57	139.818
706.90	138.818
707.23	137.606
707.56	136.212
707.89	135.242
708.21	133.970
708.54	132.667
708.87	131.697
709.20	130.879
709.53	130.212
709.86	129.364
710.19	128.697
710.51	127.939
710.84	127.394
711.17	127.091
711.50	126.152
711.83	125.212
712.16	124.455
712.48	123.788
712.81	122.697
713.14	121.455
713.47	120.818
713.80	120.091
714.13	119.242
714.45	118.636
714.78	117.576
715.11	116.848
715.44	116.091
715.76	115.515
716.09	114.818
716.42	114.000
716.75	113.121
717.08	112.576
717.40	111.909
717.73	111.394
718.06	111.061
718.38	110.212
718.71	109.576
719.04	108.697
719.37	107.939
719.69	107.061
720.02	106.545
720.35	105.970
720.68	105.121
721.00	103.970
721.33	103.303
721.66	101.939
721.98	101.545
722.31	100.727
722.64	100.303
722.96	99.667
723.29	99.000
723.62	98.545
723.94	98.303
724.27	97.758
724.60	97.576
724.92	96.667
725.25	96.151
725.58	95.758
725.90	95.424
726.23	95.212
726.55	94.727
726.88	94.242
727.21	93.545
727.53	92.636
727.86	92.242
728.18	91.545
728.51	91.515
728.84	90.636
729.16	89.879
729.49	89.121
729.81	88.576
730.14	87.667
730.46	87.030
730.79	86.667
731.12	86.182
731.44	85.333
731.77	85.545
732.09	84.879
732.42	85.000
732.74	84.455
733.07	84.242
733.39	83.424
733.72	83.000
734.04	82.788
734.37	82.394
734.69	82.061
735.02	82.182
735.34	81.303
735.67	80.788
735.99	80.000
736.32	79.667
736.64	79.515
736.97	79.394
737.29	79.182
737.62	78.758
737.94	77.909
738.27	77.545
738.59	76.636
738.91	76.212
739.24	75.939
739.56	75.576
739.89	75.394
740.21	74.788
740.54	74.606
740.86	74.424
741.18	74.061
741.51	73.879
741.83	73.273
742.16	73.091
742.48	72.788
742.80	72.273
743.13	72.000
743.45	71.758
743.77	71.152
744.10	70.667
744.42	70.273
744.75	69.939
745.07	69.848
745.39	70.030
745.72	69.545
746.04	69.182
746.36	69.030
746.69	69.000
747.01	68.515
747.33	68.727
747.66	68.455
747.98	68.091
748.30	67.727
748.62	67.636
748.95	67.515
749.27	67.485
749.59	67.121
749.92	67.000
750.24	66.758
750.56	66.697
750.88	66.242
751.21	66.212
751.53	66.364
751.85	66.364
752.17	66.182
752.50	65.909
752.82	65.788
753.14	66.000
753.46	65.697
753.79	65.455
754.11	65.212
754.43	65.182
754.75	65.061
755.07	64.636
755.40	64.697
755.72	64.879
756.04	64.697
756.36	64.697
756.68	64.364
757.01	64.000
757.33	63.758
757.65	63.879
757.97	63.788
758.29	63.424
758.61	63.333
758.94	63.030
759.26	62.364
759.58	61.970
759.90	61.667
760.22	61.545
760.54	61.667
760.86	61.576
761.18	61.030
761.51	60.727
761.83	60.697
762.15	60.758
762.47	60.485
762.79	60.455
763.11	60.455
763.43	60.333
763.75	60.091
764.07	60.212
764.39	60.061
764.71	60.030
765.03	59.758
765.35	59.697
765.68	59.636
766.00	59.939
766.32	59.939
766.64	59.818
766.96	59.515
767.28	59.455
767.60	59.212
767.92	59.121
768.24	58.879
768.56	59.061
768.88	59.152
769.20	59.273
769.52	58.879
769.84	58.636
770.16	58.242
770.48	58.303
770.80	58.242
771.12	58.394
771.44	58.303
771.76	58.273
772.07	57.848
772.39	57.303
772.71	56.788
773.03	56.667
773.35	56.394
773.67	56.636
773.99	56.424
774.31	56.242
774.63	55.606
774.95	55.697
775.27	55.515
775.59	55.727
775.91	55.636
776.22	55.667
776.54	55.455
776.86	55.515
777.18	55.364
777.50	55.636
777.82	55.788
778.14	56.030
778.46	55.606
778.77	55.848
779.09	55.697
779.41	56.000
779.73	55.727
780.05	55.758
780.37	55.788
780.68	55.848
781.00	55.909
781.32	55.788
781.64	55.455
781.96	55.485
